Typical Measured Spectrum of Semrock LP02-633RE Optical Filter	
For wavelengths between 320 and 1120 nm, values near or below 3e-7 (Optical Density 6.5) are measurement noise limited.
For wavelengths < 320 nm and > 1120 nm, values near or below 3e-6 (Optical Density 5.5) are measurement noise limited. 
Data format:  Wavelength (nm) <tab> Transmission (0 to 1)
271	0.00988
271.2	0.00997
271.4	0.01006
271.6	0.01015
271.8	0.01024
272	0.01033
272.2	0.01043
272.4	0.01052
272.6	0.01061
272.8	0.01071
273	0.0108
273.2	0.0109
273.4	0.011
273.6	0.0111
273.8	0.0112
274	0.01099
274.2	0.01076
274.4	0.01054
274.6	0.01033
274.8	0.01011
275	0.00991
275.2	0.0097
275.4	0.0095
275.6	0.00931
275.8	0.00912
276	0.00893
276.2	0.00604
276.4	0.00615
276.6	0.00627
276.8	0.00638
277	0.0065
277.2	0.00662
277.4	0.00674
277.6	0.00686
277.8	0.00699
278	0.00712
278.2	0.00725
278.4	0.00738
278.6	0.00751
278.8	0.00763
279	0.00772
279.2	0.00782
279.4	0.00791
279.6	0.008
279.8	0.0081
280	0.00819
280.2	0.00829
280.4	0.00839
280.6	0.00849
280.8	0.00859
281	0.00869
281.2	0.00879
281.4	0.00889
281.6	0.00897
281.8	0.00904
282	0.00912
282.2	0.0092
282.4	0.00928
282.6	0.00936
282.8	0.00944
283	0.00952
283.2	0.0096
283.4	0.00969
283.6	0.00977
283.8	0.00985
284	0.00994
284.2	0.00995
284.4	0.00996
284.6	0.00997
284.8	0.00998
285	0.00999
285.2	0.00999
285.4	0.01
285.6	0.01001
285.8	0.01002
286	0.01003
286.2	0.01004
286.4	0.01005
286.6	0.01006
286.8	0.01008
287	0.01011
287.2	0.01013
287.4	0.01016
287.6	0.01019
287.8	0.01021
288	0.01024
288.2	0.01027
288.4	0.0103
288.6	0.01032
288.8	0.01035
289	0.01038
289.2	0.0104
289.4	0.01048
289.6	0.01058
289.8	0.01068
290	0.01078
290.2	0.01089
290.4	0.01099
290.6	0.01109
290.8	0.0112
291	0.01131
291.2	0.01142
291.4	0.01152
291.6	0.01164
291.8	0.01175
292	0.01202
292.2	0.01246
292.4	0.01291
292.6	0.01338
292.8	0.01387
293	0.01437
293.2	0.01489
293.4	0.01544
293.6	0.016
293.8	0.01658
294	0.01718
294.2	0.01781
294.4	0.01845
294.6	0.01919
294.8	0.02007
295	0.02098
295.2	0.02194
295.4	0.02294
295.6	0.02399
295.8	0.02508
296	0.02623
296.2	0.02766
296.4	0.0292
296.6	0.03083
296.8	0.03255
297	0.03434
297.2	0.03613
297.4	0.03802
297.6	0.04001
297.8	0.04169
298	0.04336
298.2	0.04509
298.4	0.04668
298.6	0.04804
298.8	0.04943
299	0.05087
299.2	0.05231
299.4	0.05379
299.6	0.05531
299.8	0.05642
300	0.05732
300.2	0.05823
300.4	0.059
300.6	0.05935
300.8	0.05969
301	0.06004
301.2	0.05932
301.4	0.05846
301.6	0.05761
301.8	0.05614
302	0.05405
302.2	0.05204
302.4	0.04988
302.6	0.04564
302.8	0.04177
303	0.03822
303.2	0.03383
303.4	0.02951
303.6	0.02574
303.8	0.0225
304	0.01976
304.2	0.01735
304.4	0.01523
304.6	0.01471
304.8	0.01435
305	0.01399
305.2	0.01373
305.4	0.01358
305.6	0.01342
305.8	0.01308
306	0.01149
306.2	0.00988
306.4	0.01022
306.6	0.01064
306.8	0.01093
307	0.0111
307.2	0.01157
307.4	0.01173
307.6	0.01202
307.8	0.01215
308	0.01232
308.2	0.01239
308.4	0.01243
308.6	0.01242
308.8	0.01283
309	0.0133
309.2	0.0137
309.4	0.01391
309.6	0.01427
309.8	0.01502
310	0.01541
310.2	0.01624
310.4	0.01722
310.6	0.01984
310.8	0.0345
311	0.09358
311.2	0.17012
311.4	0.23226
311.6	0.26535
311.8	0.28672
312	0.30965
312.2	0.31021
312.4	0.31765
312.6	0.3358
312.8	0.33465
313	0.33361
313.2	0.35445
313.4	0.35821
313.6	0.34144
313.8	0.34961
314	0.36885
314.2	0.35787
314.4	0.34369
314.6	0.36538
314.8	0.37842
315	0.35838
315.2	0.35303
315.4	0.3813
315.6	0.38983
315.8	0.36297
316	0.36125
316.2	0.39011
316.4	0.39478
316.6	0.36392
316.8	0.36289
317	0.39349
317.2	0.39918
317.4	0.37159
317.6	0.36765
317.8	0.40254
318	0.40708
318.2	0.36687
318.4	0.35017
318.6	0.38321
318.8	0.41571
319	0.39227
319.2	0.36712
319.4	0.38679
319.6	0.41842
319.8	0.40256
320	0.36692
320.2	0.37738
320.4	0.41493
320.6	0.41532
320.8	0.37777
321	0.36588
321.2	0.40462
321.4	0.42816
321.6	0.39863
321.8	0.37
322	0.38887
322.2	0.4329
322.4	0.42315
322.6	0.3818
322.8	0.37573
323	0.41408
323.2	0.4379
323.4	0.40334
323.6	0.37196
323.8	0.39238
324	0.4333
324.2	0.43001
324.4	0.38749
324.6	0.37654
324.8	0.41585
325	0.44514
325.2	0.41427
325.4	0.37543
325.6	0.38361
325.8	0.43538
326	0.44644
326.2	0.40092
326.4	0.37119
326.6	0.39699
326.8	0.453
327	0.44264
327.2	0.39047
327.4	0.37342
327.6	0.41332
327.8	0.4627
328	0.4362
328.2	0.38158
328.4	0.37532
328.6	0.42549
328.8	0.46675
329	0.43128
329.2	0.37349
329.4	0.37581
329.6	0.43196
329.8	0.47082
330	0.42802
330.2	0.37198
330.4	0.37913
330.6	0.43955
330.8	0.47357
331	0.42399
331.2	0.36193
331.4	0.37044
331.6	0.43781
331.8	0.479
332	0.42892
332.2	0.36274
332.4	0.36246
332.6	0.43351
332.8	0.48432
333	0.43851
333.2	0.36664
333.4	0.35464
333.6	0.42253
333.8	0.48932
334	0.45328
334.2	0.37159
334.4	0.34272
334.6	0.39734
334.8	0.48509
335	0.47523
335.2	0.38894
335.4	0.33974
335.6	0.37193
335.8	0.4668
336	0.49814
336.2	0.41688
336.4	0.34383
336.6	0.34663
336.8	0.43156
337	0.50945
337.2	0.45935
337.4	0.36534
337.6	0.33214
337.8	0.3843
338	0.49145
338.2	0.50259
338.4	0.40526
338.6	0.33429
338.8	0.34322
339	0.43543
339.2	0.52069
339.4	0.46911
339.6	0.36852
339.8	0.32928
340	0.37409
340.2	0.48518
340.4	0.51988
340.6	0.4342
340.8	0.35242
341	0.34547
341.2	0.42202
341.4	0.52172
341.6	0.5017
341.8	0.40036
342	0.34067
342.2	0.36052
342.4	0.45509
342.6	0.52715
342.8	0.47334
343	0.37892
343.2	0.34147
343.4	0.38236
343.6	0.48067
343.8	0.5136
344	0.43467
344.2	0.35158
344.4	0.33327
344.6	0.39044
344.8	0.4833
345	0.48845
345.2	0.40047
345.4	0.32844
345.6	0.32201
345.8	0.3896
346	0.47496
346.2	0.46478
346.4	0.37431
346.6	0.30939
346.8	0.30953
347	0.38342
347.2	0.46286
347.4	0.43934
347.6	0.34433
347.8	0.28011
348	0.28489
348.2	0.35783
348.4	0.44295
348.6	0.42573
348.8	0.32724
349	0.25677
349.2	0.2576
349.4	0.32126
349.6	0.41405
349.8	0.41729
350	0.31883
350.2	0.24068
350.4	0.22756
350.6	0.27567
350.8	0.37132
351	0.40869
351.2	0.32259
351.4	0.23102
351.6	0.20094
351.8	0.22722
352	0.31071
352.2	0.38967
352.4	0.33826
352.6	0.23644
352.8	0.1858
353	0.18841
353.2	0.24492
353.4	0.34329
353.6	0.34434
353.8	0.25104
354	0.17951
354.2	0.15818
354.4	0.18298
354.6	0.26086
354.8	0.32718
355	0.28009
355.2	0.19378
355.4	0.14723
355.6	0.14369
355.8	0.18797
356	0.26791
356.2	0.29404
356.4	0.22167
356.6	0.14946
356.8	0.12168
357	0.1314
357.2	0.17891
357.4	0.24613
357.6	0.24362
357.8	0.16705
358	0.11191
358.2	0.093
358.4	0.09924
358.6	0.13518
358.8	0.20178
359	0.21496
359.2	0.14616
359.4	0.08984
359.6	0.06401
359.8	0.05503
360	0.05573
360.2	0.06666
360.4	0.09127
360.6	0.13449
360.8	0.18911
361	0.23087
361.2	0.25106
361.4	0.27212
361.6	0.30996
361.8	0.35889
362	0.39178
362.2	0.38912
362.4	0.3678
362.6	0.35648
362.8	0.36455
363	0.38435
363.2	0.39937
363.4	0.39577
363.6	0.3791
363.8	0.36653
364	0.36553
364.2	0.37615
364.4	0.38859
364.6	0.39038
364.8	0.38053
365	0.36783
365.2	0.36108
365.4	0.3644
365.6	0.3734
365.8	0.37812
366	0.37411
366.2	0.36314
366.4	0.35324
366.6	0.35094
366.8	0.35465
367	0.36135
367.2	0.36398
367.4	0.35776
367.6	0.34924
367.8	0.34141
368	0.34017
368.2	0.34463
368.4	0.34927
368.6	0.35049
368.8	0.34591
369	0.33706
369.2	0.3317
369.4	0.33022
369.6	0.33421
369.8	0.338
370	0.33948
370.2	0.33438
370.4	0.32807
370.6	0.32296
370.8	0.32213
371	0.32549
371.2	0.32831
371.4	0.32973
371.6	0.32502
371.8	0.3188
372	0.31368
372.2	0.31341
372.4	0.31626
372.6	0.32081
372.8	0.32124
373	0.31717
373.2	0.31155
373.4	0.30671
373.6	0.30554
373.8	0.30802
374	0.31251
374.2	0.31458
374.4	0.31117
374.6	0.30603
374.8	0.30149
375	0.2998
375.2	0.30185
375.4	0.3071
375.6	0.3087
375.8	0.30728
376	0.30152
376.2	0.29622
376.4	0.29414
376.6	0.29651
376.8	0.30109
377	0.30425
377.2	0.30424
377.4	0.29935
377.6	0.29423
377.8	0.2912
378	0.29141
378.2	0.29661
378.4	0.30111
378.6	0.30233
378.8	0.29881
379	0.29343
379.2	0.28906
379.4	0.28833
379.6	0.29229
379.8	0.29738
380	0.30089
380.2	0.29937
380.4	0.29379
380.6	0.28931
380.8	0.28679
381	0.28972
381.2	0.29541
381.4	0.29969
381.6	0.30035
381.8	0.29553
382	0.28969
382.2	0.28632
382.4	0.28686
382.6	0.29221
382.8	0.29799
383	0.30106
383.2	0.29901
383.4	0.2936
383.6	0.28836
383.8	0.28665
384	0.29054
384.2	0.29688
384.4	0.30189
384.6	0.30281
384.8	0.29874
385	0.29286
385.2	0.2887
385.4	0.28951
385.6	0.29488
385.8	0.30208
386	0.30511
386.2	0.30339
386.4	0.29746
386.6	0.29221
386.8	0.29047
387	0.29294
387.2	0.30028
387.4	0.30698
387.6	0.30872
387.8	0.30488
388	0.29762
388.2	0.29284
388.4	0.29171
388.6	0.2972
388.8	0.3051
389	0.31212
389.2	0.31321
389.4	0.30792
389.6	0.30071
389.8	0.29582
390	0.29656
390.2	0.30342
390.4	0.31184
390.6	0.31833
390.8	0.31844
391	0.31212
391.2	0.30473
391.4	0.30037
391.6	0.30193
391.8	0.30983
392	0.3187
392.2	0.32463
392.4	0.32411
392.6	0.31696
392.8	0.30872
393	0.30487
393.2	0.30753
393.4	0.3156
393.6	0.32604
393.8	0.33217
394	0.3304
394.2	0.32314
394.4	0.31468
394.6	0.31071
394.8	0.31315
395	0.3223
395.2	0.33367
395.4	0.3405
395.6	0.33939
395.8	0.33148
396	0.3219
396.2	0.31718
396.4	0.31964
396.6	0.32923
396.8	0.34135
397	0.3499
397.2	0.34987
397.4	0.3417
397.6	0.33204
397.8	0.32591
398	0.33058
398.2	0.34502
398.4	0.35784
398.6	0.36452
398.8	0.36246
399	0.35227
399.2	0.34138
399.4	0.33686
399.6	0.34075
399.8	0.35117
400	0.36619
400.2	0.37552
400.4	0.37654
400.6	0.36678
400.8	0.35526
401	0.34763
401.2	0.34898
401.4	0.35964
401.6	0.37457
401.8	0.38781
402	0.39171
402.2	0.38457
402.4	0.3712
402.6	0.36125
402.8	0.35889
403	0.36707
403.2	0.38213
403.4	0.39936
403.6	0.40792
403.8	0.40489
404	0.39147
404.2	0.37799
404.4	0.37101
404.6	0.37473
404.8	0.38896
405	0.40743
405.2	0.42308
405.4	0.42619
405.6	0.41563
405.8	0.40014
406	0.38772
406.2	0.38597
406.4	0.39523
406.6	0.41445
406.8	0.4351
407	0.44662
407.2	0.44271
407.4	0.42792
407.6	0.41085
407.8	0.40185
408	0.4048
408.2	0.4207
408.4	0.44427
408.6	0.46405
408.8	0.46978
409	0.46009
409.2	0.43908
409.4	0.42189
409.6	0.41589
409.8	0.42448
410	0.4459
410.2	0.47287
410.4	0.49201
410.6	0.49345
410.8	0.47687
411	0.45332
411.2	0.43635
411.4	0.43238
411.6	0.44672
411.8	0.47299
412	0.50328
412.2	0.52213
412.4	0.51895
412.6	0.49717
412.8	0.47015
413	0.45269
413.2	0.45178
413.4	0.46961
413.6	0.50131
413.8	0.53531
414	0.55341
414.2	0.54594
414.4	0.51708
414.6	0.48555
414.8	0.46553
415	0.46547
415.2	0.48589
415.4	0.52379
415.6	0.56463
415.8	0.58777
416	0.57867
416.2	0.54334
416.4	0.50418
416.6	0.47619
416.8	0.47004
417	0.48711
417.2	0.52533
417.4	0.57272
417.6	0.61194
417.8	0.62201
418	0.60033
418.2	0.56418
418.4	0.53478
418.6	0.525
418.8	0.53746
419	0.57042
419.2	0.61353
419.4	0.6495
419.6	0.65699
419.8	0.6342
420	0.59825
420.2	0.56739
420.4	0.55531
420.6	0.56579
420.8	0.59878
421	0.64372
421.2	0.68145
421.4	0.6914
421.6	0.67017
421.8	0.63184
422	0.59764
422.2	0.5803
422.4	0.58899
422.6	0.61884
422.8	0.66525
423	0.70834
423.2	0.72611
423.4	0.70989
423.6	0.67172
423.8	0.63225
424	0.61061
424.2	0.6121
424.4	0.63891
424.6	0.68367
424.8	0.7305
425	0.75614
425.2	0.74603
425.4	0.7093
425.6	0.66594
425.8	0.63608
426	0.63029
426.2	0.65157
426.4	0.69394
426.6	0.74554
426.8	0.78289
427	0.78664
427.2	0.75407
427.4	0.70681
427.6	0.66915
427.8	0.6522
428	0.66221
428.2	0.69756
428.4	0.75072
428.6	0.79902
428.8	0.81666
429	0.79524
429.2	0.74977
429.4	0.70241
429.6	0.67383
429.8	0.67182
430	0.69791
430.2	0.74681
430.4	0.80201
430.6	0.8377
430.8	0.83402
431	0.79361
431.2	0.74114
431.4	0.69962
431.6	0.68176
431.8	0.69266
432	0.73213
432.2	0.78894
432.4	0.84034
432.6	0.86063
432.8	0.83902
433	0.78813
433.2	0.73639
433.4	0.70162
433.6	0.69632
433.8	0.71974
434	0.76721
434.2	0.82488
434.4	0.86746
434.6	0.86855
434.8	0.82896
435	0.77243
435.2	0.72306
435.4	0.69751
435.6	0.70173
435.8	0.73569
436	0.79615
436.2	0.85823
436.4	0.89201
436.6	0.87769
436.8	0.82377
437	0.76014
437.2	0.71174
437.4	0.69384
437.6	0.70772
437.8	0.75207
438	0.81424
438.2	0.87294
438.4	0.8964
438.6	0.8693
438.8	0.80985
439	0.7466
439.2	0.70462
439.4	0.69245
439.6	0.71351
439.8	0.76344
440	0.82852
440.2	0.8814
440.4	0.89426
440.6	0.85651
440.8	0.79148
441	0.72863
441.2	0.6898
441.4	0.68229
441.6	0.70702
441.8	0.7603
442	0.82669
442.2	0.87984
442.4	0.88812
442.6	0.84623
442.8	0.77935
443	0.71698
443.2	0.67901
443.4	0.67288
443.6	0.69846
443.8	0.75287
444	0.81829
444.2	0.8705
444.4	0.87646
444.6	0.83375
444.8	0.76662
445	0.70379
445.2	0.66624
445.4	0.65978
445.6	0.68454
445.8	0.73715
446	0.80297
446.2	0.85377
446.4	0.86291
446.6	0.82125
446.8	0.75545
447	0.69417
447.2	0.6569
447.4	0.64926
447.6	0.67293
447.8	0.72321
448	0.78604
448.2	0.83496
448.4	0.84157
448.6	0.79823
448.8	0.73092
449	0.66856
449.2	0.62951
449.4	0.61986
449.6	0.64088
449.8	0.68962
450	0.75395
450.2	0.80965
450.4	0.82415
450.6	0.78842
450.8	0.72165
451	0.65666
451.2	0.61231
451.4	0.59704
451.6	0.61217
451.8	0.65596
452	0.71947
452.2	0.77955
452.4	0.80317
452.6	0.7751
452.8	0.71103
453	0.64246
453.2	0.59227
453.4	0.57022
453.6	0.57921
453.8	0.6162
454	0.67626
454.2	0.74077
454.4	0.77937
454.6	0.76564
454.8	0.70917
455	0.63908
455.2	0.58313
455.4	0.55234
455.6	0.55241
455.8	0.58178
456	0.63645
456.2	0.70215
456.4	0.75181
456.6	0.75374
456.8	0.70533
457	0.63472
457.2	0.57154
457.4	0.53272
457.6	0.52289
457.8	0.5431
458	0.58995
458.2	0.65649
458.4	0.71656
458.6	0.73804
458.8	0.702
459	0.63343
459.2	0.56377
459.4	0.51464
459.6	0.49315
459.8	0.50246
460	0.54024
460.2	0.60197
460.4	0.67161
460.6	0.71568
460.8	0.7039
461	0.6399
461.2	0.56393
461.4	0.50487
461.6	0.4722
461.8	0.46952
462	0.49609
462.2	0.54927
462.4	0.62068
462.6	0.68085
462.8	0.69514
463	0.64882
463.2	0.5734
463.4	0.5047
463.6	0.46027
463.8	0.44406
464	0.45748
464.2	0.49953
464.4	0.56585
464.6	0.63782
464.8	0.67773
465	0.65575
465.2	0.58579
465.4	0.50848
465.6	0.45052
465.8	0.42148
466	0.42048
466.2	0.44977
466.4	0.50703
466.6	0.5834
466.8	0.64825
467	0.66069
467.2	0.60606
467.4	0.52407
467.6	0.45215
467.8	0.40792
468	0.3921
468.2	0.40539
468.4	0.44843
468.6	0.51834
468.8	0.59658
469	0.64234
469.2	0.61945
469.4	0.54335
469.6	0.46215
469.8	0.40267
470	0.3737
470.2	0.37303
470.4	0.4031
470.6	0.46234
470.8	0.54571
471	0.62496
471.2	0.62318
471.4	0.54703
471.6	0.45701
471.8	0.38893
472	0.35237
472.2	0.34454
472.4	0.36647
472.6	0.419
472.8	0.50071
473	0.58505
473.2	0.61942
473.4	0.57068
473.6	0.47726
473.8	0.39399
474	0.34274
474.2	0.32149
474.4	0.32883
474.6	0.36772
474.8	0.43856
475	0.53321
475.2	0.60337
475.4	0.58996
475.6	0.49969
475.8	0.402
476	0.33403
476.2	0.29946
476.4	0.29415
476.6	0.31741
476.8	0.37468
477	0.46543
477.2	0.56331
477.4	0.5964
477.6	0.53005
477.8	0.42311
478	0.33744
478.2	0.28872
478.4	0.27174
478.6	0.28249
478.8	0.32634
479	0.4066
479.2	0.51394
479.4	0.58278
479.6	0.54434
479.8	0.43338
480	0.33453
480.2	0.27369
480.4	0.24766
480.6	0.24981
480.8	0.28154
481	0.35456
481.2	0.47
481.4	0.5687
481.6	0.55359
481.8	0.43947
482	0.32679
482.2	0.25732
482.4	0.22537
482.6	0.22284
482.8	0.24767
483	0.31118
483.2	0.42097
483.4	0.54271
483.6	0.55559
483.8	0.44134
484	0.31676
484.2	0.2398
484.4	0.2029
484.6	0.19629
484.8	0.21616
485	0.27182
485.2	0.37932
485.4	0.5172
485.6	0.54959
485.8	0.43042
486	0.29659
486.2	0.2176
486.4	0.18088
486.6	0.17353
486.8	0.19272
487	0.24766
487.2	0.36046
487.4	0.50695
487.6	0.53491
487.8	0.39264
488	0.25802
488.2	0.18531
488.4	0.15494
488.6	0.15117
488.8	0.1737
489	0.23571
489.2	0.36459
489.4	0.51701
489.6	0.49312
489.8	0.32577
490	0.20583
490.2	0.14939
490.4	0.12982
490.6	0.13406
490.8	0.16566
491	0.25486
491.2	0.42941
491.4	0.52425
491.6	0.37939
491.8	0.21996
492	0.1436
492.2	0.11416
492.4	0.11062
492.6	0.12991
492.8	0.18881
493	0.33488
493.2	0.50805
493.4	0.41863
493.6	0.22952
493.8	0.13573
494	0.10147
494.2	0.09484
494.4	0.1099
494.6	0.16632
494.8	0.31863
495	0.50324
495.2	0.36776
495.4	0.18023
495.6	0.10293
495.8	0.07784
496	0.07506
496.2	0.09414
496.4	0.16164
496.6	0.3554
496.8	0.45167
497	0.23813
497.2	0.10553
497.4	0.06456
497.6	0.05364
497.8	0.05872
498	0.08806
498.2	0.20221
498.4	0.423
498.6	0.29733
498.8	0.11114
499	0.05633
499.2	0.04292
499.4	0.04556
499.6	0.06956
499.8	0.1852
500	0.3987
500.2	0.22129
500.4	0.07046
500.6	0.03687
500.8	0.03045
501	0.03602
501.2	0.07
501.4	0.26038
501.6	0.29967
501.8	0.08372
502	0.03018
502.2	0.02104
502.4	0.02366
502.6	0.05098
502.8	0.24034
503	0.22513
503.2	0.04769
503.4	0.01708
503.6	0.01371
503.8	0.01976
504	0.09631
504.2	0.23012
504.4	0.05611
504.6	0.01216
504.8	0.00864
505	0.01425
505.2	0.11008
505.4	0.13597
505.6	0.01763
505.8	0.00549
506	0.00703
506.2	0.07405
506.4	0.08142
506.6	0.00768
506.8	0.00272
507	0.02035
507.2	0.05705
507.4	0.00713
507.6	0.00174
507.8	0.01946
508	0.01012
508.2	0.00108
508.4	0.0032
508.6	0.00129
508.8	0.00046385
509	0.00052157
509.2	0.00039718
509.4	0.00034578
509.6	0.00036837
509.8	0.00030399
510	0.00028783
510.2	0.00027424
510.4	0.00024105
510.6	0.00022368
510.8	0.00018656
511	9.2454E-05
511.2	6.4899E-05
511.4	4.5557E-05
511.6	3.1979E-05
511.8	2.2448E-05
512	1.5758E-05
512.2	1.1061E-05
512.4	7.7646E-06
512.6	5.4504E-06
512.8	3.826E-06
513	2.6857E-06
513.2	2.1452E-06
513.4	1.7264E-06
513.6	1.3893E-06
513.8	1.1181E-06
514	8.9982E-07
514.2	7.2415E-07
514.4	5.8277E-07
514.6	4.69E-07
514.8	3.7744E-07
515	3.0375E-07
515.2	2.671E-07
515.4	2.38E-07
515.6	2.1207E-07
515.8	1.8897E-07
516	1.6838E-07
516.2	1.5003E-07
516.4	1.3369E-07
516.6	1.1912E-07
516.8	1.0615E-07
517	9.4581E-08
517.2	9.2739E-08
517.4	9.3204E-08
517.6	9.3671E-08
517.8	9.4141E-08
518	9.4613E-08
518.2	9.5087E-08
518.4	9.5564E-08
518.6	9.6043E-08
518.8	9.6525E-08
519	9.7009E-08
519.2	9.7038E-08
519.4	9.6893E-08
519.6	9.6749E-08
519.8	9.6605E-08
520	9.6462E-08
520.2	9.6318E-08
520.4	9.6175E-08
520.6	9.6032E-08
520.8	9.5889E-08
521	9.5746E-08
521.2	9.6725E-08
521.4	9.7713E-08
521.6	9.8712E-08
521.8	9.972E-08
522	1.0074E-07
522.2	1.0177E-07
522.4	1.0281E-07
522.6	1.0386E-07
522.8	1.0492E-07
523	1.0599E-07
523.2	1.0587E-07
523.4	1.0569E-07
523.6	1.055E-07
523.8	1.0531E-07
524	1.0512E-07
524.2	1.0494E-07
524.4	1.0475E-07
524.6	1.0457E-07
524.8	1.0438E-07
525	1.042E-07
525.2	1.0151E-07
525.4	9.8555E-08
525.6	9.5684E-08
525.8	9.2896E-08
526	9.019E-08
526.2	8.7563E-08
526.4	8.5012E-08
526.6	8.2536E-08
526.8	8.0131E-08
527	7.7797E-08
527.2	7.4554E-08
527.4	7.1229E-08
527.6	6.8052E-08
527.8	6.5017E-08
528	6.2117E-08
528.2	5.9347E-08
528.4	5.67E-08
528.6	5.4171E-08
528.8	5.1755E-08
529	4.9447E-08
529.2	4.9528E-08
529.4	5.0418E-08
529.6	5.1324E-08
529.8	5.2246E-08
530	5.3185E-08
530.2	5.4141E-08
530.4	5.5114E-08
530.6	5.6105E-08
530.8	5.7113E-08
531	5.814E-08
531.2	6.1051E-08
531.4	6.4119E-08
531.6	6.734E-08
531.8	7.0723E-08
532	7.4276E-08
532.2	7.8008E-08
532.4	8.1927E-08
532.6	8.6043E-08
532.8	9.0366E-08
533	9.4906E-08
533.2	9.3697E-08
533.4	9.2007E-08
533.6	9.0347E-08
533.8	8.8717E-08
534	8.7117E-08
534.2	8.5545E-08
534.4	8.4002E-08
534.6	8.2487E-08
534.8	8.0999E-08
535	7.9538E-08
535.2	7.8635E-08
535.4	7.7832E-08
535.6	7.7037E-08
535.8	7.625E-08
536	7.5471E-08
536.2	7.47E-08
536.4	7.3937E-08
536.6	7.3182E-08
536.8	7.2435E-08
537	7.1695E-08
537.2	7.0866E-08
537.4	7.0023E-08
537.6	6.9189E-08
537.8	6.8366E-08
538	6.7552E-08
538.2	6.6748E-08
538.4	6.5954E-08
538.6	6.5168E-08
538.8	6.4393E-08
539	6.3626E-08
539.2	6.4813E-08
539.4	6.6751E-08
539.6	6.8747E-08
539.8	7.0803E-08
540	7.292E-08
540.2	7.5101E-08
540.4	7.7346E-08
540.6	7.9659E-08
540.8	8.2041E-08
541	8.4495E-08
541.2	8.7472E-08
541.4	9.0564E-08
541.6	9.3765E-08
541.8	9.708E-08
542	1.0051E-07
542.2	1.0406E-07
542.4	1.0774E-07
542.6	1.1155E-07
542.8	1.1549E-07
543	1.1958E-07
543.2	1.1835E-07
543.4	1.1655E-07
543.6	1.1478E-07
543.8	1.1304E-07
544	1.1132E-07
544.2	1.0963E-07
544.4	1.0796E-07
544.6	1.0632E-07
544.8	1.047E-07
545	1.0311E-07
545.2	1.0261E-07
545.4	1.0231E-07
545.6	1.0201E-07
545.8	1.0171E-07
546	1.0142E-07
546.2	1.0112E-07
546.4	1.0083E-07
546.6	1.0053E-07
546.8	1.0024E-07
547	9.9946E-08
547.2	9.9102E-08
547.4	9.8116E-08
547.6	9.7139E-08
547.8	9.6172E-08
548	9.5215E-08
548.2	9.4267E-08
548.4	9.3329E-08
548.6	9.24E-08
548.8	9.148E-08
549	9.057E-08
549.2	9.0724E-08
549.4	9.1262E-08
549.6	9.1804E-08
549.8	9.2349E-08
550	9.2897E-08
550.2	9.3448E-08
550.4	9.4003E-08
550.6	9.4561E-08
550.8	9.5122E-08
551	9.5687E-08
551.2	9.6227E-08
551.4	9.677E-08
551.6	9.7316E-08
551.8	9.7864E-08
552	9.8417E-08
552.2	9.8972E-08
552.4	9.953E-08
552.6	1.0009E-07
552.8	1.0066E-07
553	1.0122E-07
553.2	1.0291E-07
553.4	1.0472E-07
553.6	1.0657E-07
553.8	1.0846E-07
554	1.1037E-07
554.2	1.1232E-07
554.4	1.143E-07
554.6	1.1632E-07
554.8	1.1838E-07
555	1.2047E-07
555.2	1.2084E-07
555.4	1.2092E-07
555.6	1.2101E-07
555.8	1.211E-07
556	1.2119E-07
556.2	1.2127E-07
556.4	1.2136E-07
556.6	1.2145E-07
556.8	1.2154E-07
557	1.2162E-07
557.2	1.2021E-07
557.4	1.1848E-07
557.6	1.1678E-07
557.8	1.1509E-07
558	1.1344E-07
558.2	1.1181E-07
558.4	1.102E-07
558.6	1.0861E-07
558.8	1.0705E-07
559	1.0551E-07
559.2	1.0607E-07
559.4	1.0728E-07
559.6	1.0851E-07
559.8	1.0976E-07
560	1.1101E-07
560.2	1.1229E-07
560.4	1.1357E-07
560.6	1.1487E-07
560.8	1.1619E-07
561	1.1752E-07
561.2	1.18E-07
561.4	1.1845E-07
561.6	1.1889E-07
561.8	1.1934E-07
562	1.1979E-07
562.2	1.2024E-07
562.4	1.2069E-07
562.6	1.2115E-07
562.8	1.216E-07
563	1.2206E-07
563.2	1.2218E-07
563.4	1.2225E-07
563.6	1.2232E-07
563.8	1.2239E-07
564	1.2246E-07
564.2	1.2254E-07
564.4	1.2261E-07
564.6	1.2268E-07
564.8	1.2275E-07
565	1.2282E-07
565.2	1.2249E-07
565.4	1.2208E-07
565.6	1.2167E-07
565.8	1.2127E-07
566	1.2086E-07
566.2	1.2046E-07
566.4	1.2006E-07
566.6	1.1965E-07
566.8	1.1925E-07
567	1.1886E-07
567.2	1.2056E-07
567.4	1.2291E-07
567.6	1.253E-07
567.8	1.2773E-07
568	1.3021E-07
568.2	1.3274E-07
568.4	1.3532E-07
568.6	1.3795E-07
568.8	1.4063E-07
569	1.4336E-07
569.2	1.4359E-07
569.4	1.4293E-07
569.6	1.4227E-07
569.8	1.4161E-07
570	1.4096E-07
570.2	1.4031E-07
570.4	1.3966E-07
570.6	1.3901E-07
570.8	1.3837E-07
571	1.3773E-07
571.2	1.3651E-07
571.4	1.3527E-07
571.6	1.3404E-07
571.8	1.3282E-07
572	1.3162E-07
572.2	1.3042E-07
572.4	1.2924E-07
572.6	1.2806E-07
572.8	1.269E-07
573	1.2575E-07
573.2	1.2551E-07
573.4	1.2542E-07
573.6	1.2533E-07
573.8	1.2524E-07
574	1.2514E-07
574.2	1.2505E-07
574.4	1.2496E-07
574.6	1.2487E-07
574.8	1.2478E-07
575	1.2469E-07
575.2	1.2392E-07
575.4	1.2301E-07
575.6	1.2211E-07
575.8	1.2121E-07
576	1.2033E-07
576.2	1.238E-07
576.4	1.278E-07
576.6	1.3192E-07
576.8	1.3618E-07
577	1.4058E-07
577.2	1.4046E-07
577.4	1.3912E-07
577.6	1.3779E-07
577.8	1.3648E-07
578	1.3518E-07
578.2	1.3742E-07
578.4	1.4021E-07
578.6	1.4306E-07
578.8	1.4597E-07
579	1.4894E-07
579.2	1.4887E-07
579.4	1.4781E-07
579.6	1.4675E-07
579.8	1.4571E-07
580	1.4467E-07
580.2	1.4684E-07
580.4	1.4967E-07
580.6	1.5255E-07
580.8	1.555E-07
581	1.585E-07
581.2	1.5646E-07
581.4	1.5446E-07
581.6	1.5248E-07
581.8	1.5052E-07
582	1.4859E-07
582.2	1.4877E-07
582.4	1.4946E-07
582.6	1.5015E-07
582.8	1.5084E-07
583	1.5154E-07
583.2	1.5224E-07
583.4	1.5294E-07
583.6	1.5365E-07
583.8	1.5436E-07
584	1.5507E-07
584.2	1.2521E-07
584.4	9.4892E-08
584.6	7.1912E-08
584.8	5.4498E-08
585	4.1301E-08
585.2	3.1299E-08
585.4	2.372E-08
585.6	1.7976E-08
585.8	1.3623E-08
586	1.0324E-08
586.2	1.0284E-08
586.4	1.0262E-08
586.6	1.0232E-08
586.8	1.0209E-08
587	1.02E-08
587.2	1.0276E-08
587.4	1.4346E-08
587.6	1.0444E-08
587.8	1.0221E-08
588	1.4909E-08
588.2	1.6097E-08
588.4	1.021E-08
588.6	1.0239E-08
588.8	1.027E-08
589	1.0285E-08
589.2	1.0283E-08
589.4	2.3378E-08
589.6	3.1435E-08
589.8	1.2628E-08
590	5.9975E-08
590.2	4.8851E-08
590.4	1.3117E-08
590.6	4.5088E-08
590.8	3.3324E-08
591	1.5917E-08
591.2	5.1868E-08
591.4	5.189E-08
591.6	1.8246E-08
591.8	1.1099E-08
592	1.6077E-08
592.2	1.5422E-08
592.4	1.0363E-08
592.6	1.0358E-08
592.8	1.0342E-08
593	4.2242E-08
593.2	1.25E-07
593.4	6.0158E-08
593.6	4.9553E-08
593.8	6.7269E-08
594	1.0735E-08
594.2	2.4419E-08
594.4	1.6106E-08
594.6	1.089E-08
594.8	2.343E-08
595	2.4504E-08
595.2	1.3931E-08
595.4	5.0501E-08
595.6	7.5296E-08
595.8	5.2848E-08
596	1.6599E-08
596.2	1.0472E-08
596.4	1.0464E-08
596.6	1.4488E-08
596.8	9.8638E-08
597	1.9856E-08
597.2	1.5393E-08
597.4	1.3274E-08
597.6	1.0464E-08
597.8	1.0454E-08
598	1.3149E-08
598.2	8.938E-08
598.4	9.9675E-08
598.6	7.1698E-08
598.8	6.0881E-08
599	4.535E-08
599.2	2.3439E-08
599.4	1.0776E-08
599.6	1.8721E-08
599.8	5.9136E-08
600	6.2181E-08
600.2	3.4965E-08
600.4	1.9561E-08
600.6	1.518E-08
600.8	5.9983E-08
601	1.4388E-08
601.2	1.0296E-08
601.4	1.9424E-08
601.6	6.313E-08
601.8	4.6268E-08
602	1.4191E-08
602.2	5.9074E-08
602.4	5.4013E-08
602.6	2.0758E-08
602.8	2.0063E-08
603	6.7902E-08
603.2	6.4937E-08
603.4	1.909E-08
603.6	1.0979E-08
603.8	1.0458E-08
604	1.866E-08
604.2	4.2099E-08
604.4	6.9393E-08
604.6	4.1586E-08
604.8	1.0473E-08
605	1.0468E-08
605.2	2.2252E-08
605.4	4.013E-08
605.6	4.4912E-08
605.8	4.2395E-08
606	5.3584E-08
606.2	2.0184E-08
606.4	1.1595E-08
606.6	1.0394E-08
606.8	2.8567E-08
607	8.7457E-08
607.2	6.6589E-08
607.4	6.4155E-08
607.6	1.0421E-08
607.8	2.4972E-08
608	3.0923E-08
608.2	1.9878E-08
608.4	1.5683E-08
608.6	5.5611E-08
608.8	4.5356E-08
609	7.0881E-08
609.2	1.6366E-08
609.4	3.3229E-08
609.6	3.9098E-08
609.8	1.3369E-08
610	3.2506E-08
610.2	1.2999E-08
610.4	5.4096E-08
610.6	9.0131E-08
610.8	9.8459E-08
611	9.6814E-08
611.2	9.8465E-08
611.4	5.7927E-08
611.6	1.1027E-08
611.8	1.9197E-08
612	4.3938E-08
612.2	2.6823E-08
612.4	1.525E-08
612.6	4.0695E-08
612.8	3.1061E-08
613	5.3263E-08
613.2	7.7419E-08
613.4	3.5111E-08
613.6	3.1009E-08
613.8	5.2357E-08
614	5.2966E-08
614.2	7.579E-08
614.4	1.0296E-07
614.6	4.9439E-08
614.8	6.92E-08
615	7.9667E-08
615.2	6.036E-08
615.4	5.1906E-08
615.6	3.4815E-08
615.8	1.0938E-08
616	3.6299E-08
616.2	5.8093E-08
616.4	6.6499E-08
616.6	6.6614E-08
616.8	4.2712E-08
617	9.8273E-08
617.2	2.4315E-08
617.4	6.2615E-08
617.6	5.2886E-08
617.8	2.7523E-08
618	1.9167E-08
618.2	1.1011E-08
618.4	7.2781E-08
618.6	1.4704E-08
618.8	3.9287E-08
619	9.0839E-08
619.2	9.2094E-08
619.4	5.2798E-08
619.6	6.1066E-08
619.8	6.7576E-08
620	7.0148E-08
620.2	6.6768E-08
620.4	6.2381E-08
620.6	7.7855E-08
620.8	8.2306E-08
621	3.7957E-08
621.2	4.1684E-08
621.4	1.0469E-07
621.6	1.3092E-07
621.8	9.3358E-08
622	6.1305E-08
622.2	1.2342E-07
622.4	8.1713E-08
622.6	7.6475E-08
622.8	4.1928E-08
623	6.3817E-08
623.2	8.8426E-08
623.4	6.9354E-08
623.6	7.4543E-08
623.8	9.9731E-08
624	9.759E-08
624.2	1.1375E-07
624.4	7.9529E-08
624.6	6.0973E-08
624.8	1.0373E-07
625	1.1642E-07
625.2	8.9677E-08
625.4	1.0778E-07
625.6	1.0367E-07
625.8	7.762E-08
626	4.627E-08
626.2	2.1976E-08
626.4	3.8221E-08
626.6	6.0686E-08
626.8	6.7443E-08
627	6.293E-08
627.2	9.1659E-08
627.4	1.4741E-07
627.6	1.2465E-07
627.8	1.5636E-07
628	1.1468E-07
628.2	1.1129E-07
628.4	1.0394E-07
628.6	9.3689E-08
628.8	1.2945E-07
629	2.144E-07
629.2	1.9783E-07
629.4	2.0618E-07
629.6	1.91E-07
629.8	1.7585E-07
630	1.7267E-07
630.2	1.5015E-07
630.4	1.3376E-07
630.6	1.0891E-07
630.8	1.6807E-07
631	2.4459E-07
631.2	2.5599E-07
631.4	2.8176E-07
631.6	3.0155E-07
631.8	4.0122E-07
632	6.1169E-07
632.2	7.5032E-07
632.4	8.1993E-07
632.6	9.3978E-07
632.8	1.1752E-06
633	1.5568E-06
633.2	2.2548E-06
633.4	2.8078E-06
633.6	4.4495E-06
633.8	1.3699E-05
634	9.2919E-05
634.2	0.00012836
634.4	0.00017036
634.6	0.00034028
634.8	0.00096936
635	0.00422
635.2	0.01989
635.4	0.0988
635.6	0.32234
635.8	0.64094
636	0.79366
636.2	0.88693
636.4	0.95333
636.6	0.96531
636.8	0.96308
637	0.97364
637.2	0.98378
637.4	0.98649
637.6	0.97868
637.8	0.97398
638	0.97755
638.2	0.98507
638.4	0.99137
638.6	0.9903
638.8	0.98544
639	0.97979
639.2	0.9787
639.4	0.9824
639.6	0.98694
639.8	0.99026
640	0.99105
640.2	0.98931
640.4	0.98624
640.6	0.98458
640.8	0.98508
641	0.98778
641.2	0.99034
641.4	0.9937
641.6	0.99316
641.8	0.9918
642	0.99013
642.2	0.98765
642.4	0.98668
642.6	0.98811
642.8	0.98961
643	0.99188
643.2	0.99391
643.4	0.99504
643.6	0.99347
643.8	0.99236
644	0.99022
644.2	0.98892
644.4	0.98899
644.6	0.98913
644.8	0.99115
645	0.99318
645.2	0.99414
645.4	0.99474
645.6	0.9943
645.8	0.99365
646	0.99235
646.2	0.99152
646.4	0.99097
646.6	0.99094
646.8	0.99096
647	0.99191
647.2	0.99308
647.4	0.99398
647.6	0.99469
647.8	0.99514
648	0.99454
648.2	0.99376
648.4	0.99176
648.6	0.99106
648.8	0.9913
649	0.99096
649.2	0.99139
649.4	0.99302
649.6	0.99342
649.8	0.99443
650	0.99545
650.2	0.9954
650.4	0.99505
650.6	0.99459
650.8	0.99385
651	0.99294
651.2	0.99263
651.4	0.9924
651.6	0.99207
651.8	0.99259
652	0.99348
652.2	0.99417
652.4	0.99552
652.6	0.99581
652.8	0.9957
653	0.9956
653.2	0.99476
653.4	0.99364
653.6	0.99284
653.8	0.99131
654	0.99095
654.2	0.99016
654.4	0.99047
654.6	0.99079
654.8	0.99159
655	0.99233
655.2	0.99289
655.4	0.99404
655.6	0.99507
655.8	0.99517
656	0.99473
656.2	0.99432
656.4	0.99426
656.6	0.99322
656.8	0.99301
657	0.99229
657.2	0.99171
657.4	0.99228
657.6	0.99255
657.8	0.99317
658	0.99372
658.2	0.9942
658.4	0.9949
658.6	0.99521
658.8	0.99622
659	0.99633
659.2	0.99614
659.4	0.996
659.6	0.9956
659.8	0.99497
660	0.99493
660.2	0.99473
660.4	0.99455
660.6	0.99427
660.8	0.99529
661	0.99539
661.2	0.99534
661.4	0.99529
661.6	0.99524
661.8	0.99573
662	0.99517
662.2	0.99523
662.4	0.99393
662.6	0.99398
662.8	0.99286
663	0.99303
663.2	0.99206
663.4	0.99178
663.6	0.99171
663.8	0.99198
664	0.99259
664.2	0.99251
664.4	0.99347
664.6	0.99438
664.8	0.99491
665	0.9951
665.2	0.99529
665.4	0.99507
665.6	0.9942
665.8	0.99392
666	0.99345
666.2	0.99288
666.4	0.99187
666.6	0.99091
666.8	0.99062
667	0.99067
667.2	0.99045
667.4	0.9907
667.6	0.99163
667.8	0.99203
668	0.99268
668.2	0.99352
668.4	0.99453
668.6	0.99483
668.8	0.99519
669	0.995
669.2	0.9945
669.4	0.99423
669.6	0.99325
669.8	0.99228
670	0.99111
670.2	0.9909
670.4	0.99013
670.6	0.99045
670.8	0.99002
671	0.99036
671.2	0.99106
671.4	0.99177
671.6	0.99247
671.8	0.99291
672	0.9938
672.2	0.99441
672.4	0.99516
672.6	0.99501
672.8	0.99497
673	0.99455
673.2	0.99407
673.4	0.99326
673.6	0.99284
673.8	0.99166
674	0.99081
674.2	0.98983
674.4	0.9893
674.6	0.98975
674.8	0.99003
675	0.99036
675.2	0.99107
675.4	0.99148
675.6	0.99245
675.8	0.99369
676	0.99392
676.2	0.99408
676.4	0.99474
676.6	0.99502
676.8	0.99481
677	0.99456
677.2	0.99396
677.4	0.99289
677.6	0.99202
677.8	0.99131
678	0.99045
678.2	0.9895
678.4	0.98975
678.6	0.98958
678.8	0.98935
679	0.98958
679.2	0.99024
679.4	0.99097
679.6	0.99197
679.8	0.99271
680	0.99336
680.2	0.99407
680.4	0.99486
680.6	0.99513
680.8	0.99535
681	0.99496
681.2	0.99412
681.4	0.99328
681.6	0.99244
681.8	0.99223
682	0.99168
682.2	0.99087
682.4	0.99036
682.6	0.99017
682.8	0.98999
683	0.99015
683.2	0.99074
683.4	0.99122
683.6	0.99189
683.8	0.9929
684	0.99327
684.2	0.99427
684.4	0.99466
684.6	0.99531
684.8	0.99541
685	0.99517
685.2	0.99545
685.4	0.99473
685.6	0.99383
685.8	0.99349
686	0.99256
686.2	0.99119
686.4	0.99051
686.6	0.99039
686.8	0.9901
687	0.99009
687.2	0.98985
687.4	0.99044
687.6	0.99081
687.8	0.99194
688	0.99216
688.2	0.99319
688.4	0.99399
688.6	0.9948
688.8	0.99515
689	0.99518
689.2	0.99561
689.4	0.99527
689.6	0.99488
689.8	0.99412
690	0.99336
690.2	0.9929
690.4	0.99152
690.6	0.99083
690.8	0.98996
691	0.98968
691.2	0.98916
691.4	0.98864
691.6	0.98812
691.8	0.98906
692	0.98887
692.2	0.99076
692.4	0.99061
692.6	0.99197
692.8	0.99313
693	0.99356
693.2	0.99419
693.4	0.99498
693.6	0.9953
693.8	0.9946
694	0.99508
694.2	0.99482
694.4	0.99366
694.6	0.99315
694.8	0.99173
695	0.99178
695.2	0.99075
695.4	0.98995
695.6	0.9892
695.8	0.9891
696	0.98897
696.2	0.98816
696.4	0.98929
696.6	0.98974
696.8	0.99049
697	0.9912
697.2	0.99161
697.4	0.99321
697.6	0.99397
697.8	0.9941
698	0.99459
698.2	0.99495
698.4	0.99534
698.6	0.99607
698.8	0.99493
699	0.9946
699.2	0.99342
699.4	0.9932
699.6	0.9928
699.8	0.99219
700	0.99081
700.2	0.99027
700.4	0.99043
700.6	0.98949
700.8	0.98923
701	0.98955
701.2	0.99002
701.4	0.99048
701.6	0.99095
701.8	0.99165
702	0.99248
702.2	0.99369
702.4	0.99451
702.6	0.99492
702.8	0.99554
703	0.99579
703.2	0.99551
703.4	0.99579
703.6	0.99521
703.8	0.99465
704	0.99398
704.2	0.99341
704.4	0.99191
704.6	0.99151
704.8	0.98993
705	0.9901
705.2	0.98977
705.4	0.9893
705.6	0.98924
705.8	0.98959
706	0.9893
706.2	0.98995
706.4	0.99045
706.6	0.99125
706.8	0.99191
707	0.99331
707.2	0.99402
707.4	0.99415
707.6	0.99508
707.8	0.99587
708	0.996
708.2	0.99635
708.4	0.99552
708.6	0.99592
708.8	0.99513
709	0.99401
709.2	0.99351
709.4	0.99225
709.6	0.99225
709.8	0.99122
710	0.99033
710.2	0.99042
710.4	0.99005
710.6	0.9898
710.8	0.9898
711	0.99042
711.2	0.99107
711.4	0.99171
711.6	0.99235
711.8	0.99269
712	0.99361
712.2	0.99437
712.4	0.99498
712.6	0.99527
712.8	0.99554
713	0.99601
713.2	0.99604
713.4	0.99554
713.6	0.99532
713.8	0.99488
714	0.99409
714.2	0.99333
714.4	0.99262
714.6	0.99153
714.8	0.9904
715	0.98996
715.2	0.9894
715.4	0.98911
715.6	0.9888
715.8	0.98888
716	0.98915
716.2	0.98914
716.4	0.98984
716.6	0.99027
716.8	0.99163
717	0.99225
717.2	0.9932
717.4	0.99394
717.6	0.99475
717.8	0.9953
718	0.99535
718.2	0.9954
718.4	0.99585
718.6	0.99578
718.8	0.99549
719	0.9953
719.2	0.99454
719.4	0.99368
719.6	0.99286
719.8	0.99235
720	0.99146
720.2	0.99071
720.4	0.99007
720.6	0.9895
720.8	0.989
721	0.98932
721.2	0.98963
721.4	0.98994
721.6	0.99025
721.8	0.99089
722	0.9911
722.2	0.99203
722.4	0.99291
722.6	0.99358
722.8	0.99434
723	0.99503
723.2	0.99579
723.4	0.99617
723.6	0.99572
723.8	0.99593
724	0.99599
724.2	0.99542
724.4	0.99517
724.6	0.99434
724.8	0.99382
725	0.99311
725.2	0.99216
725.4	0.99145
725.6	0.99051
725.8	0.9903
726	0.98971
726.2	0.98905
726.4	0.98922
726.6	0.98912
726.8	0.98958
727	0.98975
727.2	0.99035
727.4	0.99078
727.6	0.99127
727.8	0.99242
728	0.99304
728.2	0.99369
728.4	0.99436
728.6	0.99465
728.8	0.99544
729	0.99585
729.2	0.99544
729.4	0.99563
729.6	0.99546
729.8	0.99465
730	0.99417
730.2	0.99347
730.4	0.99306
730.6	0.99208
730.8	0.99135
731	0.99061
731.2	0.9902
731.4	0.9898
731.6	0.98939
731.8	0.98882
732	0.98855
732.2	0.98873
732.4	0.98922
732.6	0.9893
732.8	0.99011
733	0.99038
733.2	0.99095
733.4	0.99203
733.6	0.99263
733.8	0.99358
734	0.99403
734.2	0.99431
734.4	0.99478
734.6	0.99528
734.8	0.99518
735	0.99513
735.2	0.99498
735.4	0.99445
735.6	0.99373
735.8	0.9936
736	0.99273
736.2	0.99206
736.4	0.99128
736.6	0.99049
736.8	0.99027
737	0.98954
737.2	0.98932
737.4	0.98879
737.6	0.9888
737.8	0.98873
738	0.98904
738.2	0.98938
738.4	0.98975
738.6	0.99
738.8	0.99093
739	0.99166
739.2	0.99233
739.4	0.99297
739.6	0.99363
739.8	0.99418
740	0.99436
740.2	0.99484
740.4	0.99529
740.6	0.99497
740.8	0.99483
741	0.99461
741.2	0.99419
741.4	0.99378
741.6	0.99337
741.8	0.99265
742	0.9917
742.2	0.99091
742.4	0.99018
742.6	0.98975
742.8	0.9891
743	0.9887
743.2	0.98856
743.4	0.98867
743.6	0.98824
743.8	0.9887
744	0.98908
744.2	0.98957
744.4	0.98987
744.6	0.99049
744.8	0.9913
745	0.99159
745.2	0.99231
745.4	0.99342
745.6	0.99374
745.8	0.99423
746	0.99451
746.2	0.99424
746.4	0.99464
746.6	0.99469
746.8	0.99416
747	0.99377
747.2	0.99366
747.4	0.99307
747.6	0.99184
747.8	0.99154
748	0.99074
748.2	0.99008
748.4	0.98945
748.6	0.98882
748.8	0.98858
749	0.98809
749.2	0.98782
749.4	0.98807
749.6	0.98797
749.8	0.98842
750	0.98867
750.2	0.98906
750.4	0.98955
750.6	0.99021
750.8	0.99072
751	0.99107
751.2	0.99161
751.4	0.99213
751.6	0.99267
751.8	0.99343
752	0.99314
752.2	0.99379
752.4	0.99362
752.6	0.99465
752.8	0.99393
753	0.99327
753.2	0.99353
753.4	0.99252
753.6	0.99174
753.8	0.99111
754	0.9907
754.2	0.98933
754.4	0.98908
754.6	0.989
754.8	0.98822
755	0.98746
755.2	0.98709
755.4	0.9873
755.6	0.98712
755.8	0.98725
756	0.98775
756.2	0.98785
756.4	0.98854
756.6	0.98893
756.8	0.98941
757	0.99043
757.2	0.99091
757.4	0.99147
757.6	0.99188
757.8	0.99267
758	0.99372
758.2	0.99368
758.4	0.99391
758.6	0.99313
758.8	0.99374
759	0.99356
759.2	0.99419
759.4	0.99324
759.6	0.99253
759.8	0.99206
760	0.99126
760.2	0.99077
760.4	0.99126
760.6	0.98936
760.8	0.989
761	0.98844
761.2	0.98823
761.4	0.98803
761.6	0.98782
761.8	0.98756
762	0.98778
762.2	0.98784
762.4	0.98812
762.6	0.98851
762.8	0.98869
763	0.98941
763.2	0.99012
763.4	0.99068
763.6	0.9915
763.8	0.99175
764	0.99234
764.2	0.99274
764.4	0.99318
764.6	0.99327
764.8	0.99333
765	0.99356
765.2	0.99356
765.4	0.99319
765.6	0.99263
765.8	0.99242
766	0.99204
766.2	0.99175
766.4	0.99087
766.6	0.99042
766.8	0.98983
767	0.98943
767.2	0.98864
767.4	0.98806
767.6	0.98819
767.8	0.98795
768	0.98744
768.2	0.98751
768.4	0.98763
768.6	0.98787
768.8	0.98802
769	0.98836
769.2	0.9889
769.4	0.98944
769.6	0.98984
769.8	0.99071
770	0.99144
770.2	0.99158
770.4	0.99211
770.6	0.99269
770.8	0.99287
771	0.9933
771.2	0.99349
771.4	0.99368
771.6	0.99387
771.8	0.99353
772	0.99321
772.2	0.99253
772.4	0.9923
772.6	0.99179
772.8	0.99127
773	0.99074
773.2	0.99005
773.4	0.98997
773.6	0.9892
773.8	0.98894
774	0.98846
774.2	0.98807
774.4	0.98803
774.6	0.98797
774.8	0.98788
775	0.9879
775.2	0.9883
775.4	0.98845
775.6	0.98917
775.8	0.98925
776	0.98982
776.2	0.99048
776.4	0.99077
776.6	0.99109
776.8	0.99186
777	0.9921
777.2	0.99245
777.4	0.99273
777.6	0.99293
777.8	0.99299
778	0.99328
778.2	0.99284
778.4	0.99262
778.6	0.99259
778.8	0.99191
779	0.99114
779.2	0.99055
779.4	0.99014
779.6	0.98971
779.8	0.98928
780	0.98869
780.2	0.98815
780.4	0.988
780.6	0.9872
780.8	0.98669
781	0.98689
781.2	0.98681
781.4	0.98673
781.6	0.98666
781.8	0.98702
782	0.98746
782.2	0.98784
782.4	0.98864
782.6	0.98905
782.8	0.98934
783	0.99016
783.2	0.99044
783.4	0.99153
783.6	0.99176
783.8	0.99199
784	0.99245
784.2	0.99315
784.4	0.99344
784.6	0.99337
784.8	0.99316
785	0.99335
785.2	0.99328
785.4	0.99269
785.6	0.99202
785.8	0.99154
786	0.99171
786.2	0.99109
786.4	0.99029
786.6	0.98991
786.8	0.98892
787	0.98845
787.2	0.98804
787.4	0.98799
787.6	0.9873
787.8	0.98742
788	0.98714
788.2	0.98713
788.4	0.98711
788.6	0.98759
788.8	0.98773
789	0.98799
789.2	0.98858
789.4	0.9889
789.6	0.98961
789.8	0.99017
790	0.99047
790.2	0.99118
790.4	0.99184
790.6	0.99203
790.8	0.99271
791	0.99309
791.2	0.99349
791.4	0.99389
791.6	0.99428
791.8	0.99385
792	0.99341
792.2	0.99304
792.4	0.99263
792.6	0.99236
792.8	0.99178
793	0.99145
793.2	0.99096
793.4	0.99018
793.6	0.98953
793.8	0.98944
794	0.98918
794.2	0.98826
794.4	0.9878
794.6	0.98804
794.8	0.9876
795	0.98773
795.2	0.98767
795.4	0.98763
795.6	0.98755
795.8	0.98766
796	0.98848
796.2	0.98918
796.4	0.9894
796.6	0.98968
796.8	0.99047
797	0.99037
797.2	0.99097
797.4	0.99184
797.6	0.99237
797.8	0.99299
798	0.99279
798.2	0.99321
798.4	0.99366
798.6	0.99343
798.8	0.99367
799	0.99347
799.2	0.99329
799.4	0.99327
799.6	0.99232
799.8	0.99239
800	0.99216
800.2	0.99163
800.4	0.99085
800.6	0.9904
800.8	0.98989
801	0.99126
801.2	0.99102
801.4	0.99029
801.6	0.98999
801.8	0.99004
802	0.98996
802.2	0.98977
802.4	0.98956
802.6	0.98971
802.8	0.98969
803	0.9904
803.2	0.99059
803.4	0.99113
803.6	0.99107
803.8	0.99132
804	0.99234
804.2	0.99266
804.4	0.99273
804.6	0.99343
804.8	0.99389
805	0.99442
805.2	0.99498
805.4	0.99465
805.6	0.9952
805.8	0.99505
806	0.9954
806.2	0.99536
806.4	0.995
806.6	0.99475
806.8	0.99395
807	0.99389
807.2	0.99316
807.4	0.99331
807.6	0.99328
807.8	0.99235
808	0.99176
808.2	0.99137
808.4	0.99103
808.6	0.98998
808.8	0.99012
809	0.99021
809.2	0.98968
809.4	0.98971
809.6	0.9899
809.8	0.98935
810	0.98938
810.2	0.98986
810.4	0.99017
810.6	0.9906
810.8	0.991
811	0.99178
811.2	0.99189
811.4	0.9926
811.6	0.99272
811.8	0.99275
812	0.99363
812.2	0.99392
812.4	0.9942
812.6	0.99443
812.8	0.99461
813	0.99478
813.2	0.9948
813.4	0.99527
813.6	0.99475
813.8	0.99452
814	0.9943
814.2	0.9939
814.4	0.9936
814.6	0.99341
814.8	0.99287
815	0.99213
815.2	0.99201
815.4	0.99158
815.6	0.99126
815.8	0.99097
816	0.99056
816.2	0.98995
816.4	0.99021
816.6	0.98953
816.8	0.98957
817	0.98861
817.2	0.98973
817.4	0.98968
817.6	0.98928
817.8	0.99018
818	0.99067
818.2	0.99071
818.4	0.99056
818.6	0.9913
818.8	0.99179
819	0.99236
819.2	0.99284
819.4	0.99336
819.6	0.99441
819.8	0.99437
820	0.99441
820.2	0.99406
820.4	0.99434
820.6	0.99518
820.8	0.99553
821	0.99498
821.2	0.99451
821.4	0.99431
821.6	0.99409
821.8	0.9944
822	0.99396
822.2	0.99342
822.4	0.99307
822.6	0.99256
822.8	0.99207
823	0.99108
823.2	0.99139
823.4	0.99097
823.6	0.99009
823.8	0.99025
824	0.98961
824.2	0.98985
824.4	0.98966
824.6	0.98926
824.8	0.98968
825	0.98987
825.2	0.98953
825.4	0.98991
825.6	0.9902
825.8	0.99082
826	0.99091
826.2	0.99139
826.4	0.9917
826.6	0.99223
826.8	0.99243
827	0.99274
827.2	0.99321
827.4	0.99381
827.6	0.99375
827.8	0.99371
828	0.99421
828.2	0.99402
828.4	0.99448
828.6	0.99399
828.8	0.99403
829	0.99379
829.2	0.99362
829.4	0.99357
829.6	0.99297
829.8	0.99291
830	0.99204
830.2	0.99171
830.4	0.99142
830.6	0.99059
830.8	0.99016
831	0.98977
831.2	0.98912
831.4	0.98968
831.6	0.98902
831.8	0.98882
832	0.9887
832.2	0.98867
832.4	0.98827
832.6	0.98861
832.8	0.98898
833	0.98906
833.2	0.98911
833.4	0.98966
833.6	0.98968
833.8	0.99014
834	0.99051
834.2	0.99103
834.4	0.99089
834.6	0.99157
834.8	0.9924
835	0.99291
835.2	0.99288
835.4	0.9935
835.6	0.99311
835.8	0.99315
836	0.99335
836.2	0.99371
836.4	0.99363
836.6	0.99379
836.8	0.99346
837	0.99277
837.2	0.99309
837.4	0.99279
837.6	0.99259
837.8	0.99207
838	0.99165
838.2	0.99119
838.4	0.99064
838.6	0.99026
838.8	0.99047
839	0.98924
839.2	0.9893
839.4	0.98902
839.6	0.98841
839.8	0.98848
840	0.98878
840.2	0.98849
840.4	0.98791
840.6	0.98817
840.8	0.98881
841	0.98873
841.2	0.98898
841.4	0.98878
841.6	0.98908
841.8	0.99
842	0.99021
842.2	0.99042
842.4	0.991
842.6	0.99123
842.8	0.99159
843	0.9922
843.2	0.99262
843.4	0.99238
843.6	0.99288
843.8	0.99294
844	0.99316
844.2	0.99319
844.4	0.99268
844.6	0.99297
844.8	0.99342
845	0.99279
845.2	0.99257
845.4	0.99187
845.6	0.9919
845.8	0.99199
846	0.99139
846.2	0.99094
846.4	0.9905
846.6	0.98989
846.8	0.98935
847	0.98944
847.2	0.98862
847.4	0.98857
847.6	0.98809
847.8	0.98782
848	0.98805
848.2	0.98778
848.4	0.98806
848.6	0.98744
848.8	0.98751
849	0.98776
849.2	0.98781
849.4	0.98834
849.6	0.98884
849.8	0.98892
850	0.98889
850.2	0.98919
850.4	0.98973
850.6	0.99037
850.8	0.99007
851	0.99096
851.2	0.99091
851.4	0.99181
851.6	0.99136
851.8	0.99154
852	0.99211
852.2	0.99244
852.4	0.99218
852.6	0.99248
852.8	0.99278
853	0.99229
853.2	0.99231
853.4	0.99215
853.6	0.99172
853.8	0.99146
854	0.99152
854.2	0.991
854.4	0.99042
854.6	0.9902
854.8	0.98985
855	0.98971
855.2	0.98877
855.4	0.98866
855.6	0.98891
855.8	0.98863
856	0.98824
856.2	0.98773
856.4	0.98789
856.6	0.98756
856.8	0.98726
857	0.98766
857.2	0.9879
857.4	0.98792
857.6	0.98799
857.8	0.98828
858	0.98848
858.2	0.98901
858.4	0.98899
858.6	0.9893
858.8	0.98951
859	0.98997
859.2	0.98999
859.4	0.99075
859.6	0.99104
859.8	0.99131
860	0.99147
860.2	0.99173
860.4	0.99216
860.6	0.99238
860.8	0.99233
861	0.99204
861.2	0.9922
861.4	0.9928
861.6	0.99203
861.8	0.99236
862	0.99221
862.2	0.99149
862.4	0.99155
862.6	0.99137
862.8	0.99074
863	0.99052
863.2	0.98999
863.4	0.99008
863.6	0.98958
863.8	0.98939
864	0.98832
864.2	0.98776
864.4	0.98841
864.6	0.98806
864.8	0.98816
865	0.98774
865.2	0.98748
865.4	0.98776
865.6	0.98773
865.8	0.98771
866	0.98806
866.2	0.98828
866.4	0.98824
866.6	0.98839
866.8	0.98851
867	0.98837
867.2	0.98887
867.4	0.9896
867.6	0.99009
867.8	0.99017
868	0.99012
868.2	0.99089
868.4	0.99112
868.6	0.99122
868.8	0.99107
869	0.99163
869.2	0.99205
869.4	0.99188
869.6	0.99188
869.8	0.99171
870	0.99177
870.2	0.99168
870.4	0.99128
870.6	0.99126
870.8	0.99115
871	0.99053
871.2	0.99038
871.4	0.99018
871.6	0.98998
871.8	0.98995
872	0.98946
872.2	0.98907
872.4	0.98875
872.6	0.98827
872.8	0.98837
873	0.98808
873.2	0.98799
873.4	0.98793
873.6	0.98765
873.8	0.98751
874	0.98764
874.2	0.98782
874.4	0.98776
874.6	0.98795
874.8	0.98806
875	0.98797
875.2	0.98851
875.4	0.9885
875.6	0.98907
875.8	0.98908
876	0.98964
876.2	0.98989
876.4	0.98995
876.6	0.99032
876.8	0.99052
877	0.99076
877.2	0.99128
877.4	0.991
877.6	0.99121
877.8	0.99135
878	0.99179
878.2	0.99182
878.4	0.99173
878.6	0.99157
878.8	0.99153
879	0.99116
879.2	0.99158
879.4	0.99099
879.6	0.99102
879.8	0.99086
880	0.99026
880.2	0.98979
880.4	0.98982
880.6	0.98955
880.8	0.98895
881	0.98896
881.2	0.98881
881.4	0.98826
881.6	0.98813
881.8	0.98795
882	0.98797
882.2	0.98779
882.4	0.98769
882.6	0.98735
882.8	0.98765
883	0.9876
883.2	0.98764
883.4	0.9879
883.6	0.98814
883.8	0.9882
884	0.98863
884.2	0.98864
884.4	0.98909
884.6	0.98908
884.8	0.98937
885	0.98957
885.2	0.99008
885.4	0.9902
885.6	0.99039
885.8	0.99109
886	0.99096
886.2	0.9912
886.4	0.99148
886.6	0.99167
886.8	0.99152
887	0.99189
887.2	0.99149
887.4	0.9915
887.6	0.99152
887.8	0.9916
888	0.9914
888.2	0.99135
888.4	0.99111
888.6	0.99103
888.8	0.99056
889	0.99038
889.2	0.98986
889.4	0.98981
889.6	0.98947
889.8	0.98905
890	0.98899
890.2	0.98866
890.4	0.98826
890.6	0.98816
890.8	0.98793
891	0.98776
891.2	0.98769
891.4	0.98742
891.6	0.98789
891.8	0.98767
892	0.98788
892.2	0.98735
892.4	0.98797
892.6	0.98827
892.8	0.98828
893	0.98836
893.2	0.98875
893.4	0.98886
893.6	0.98904
893.8	0.98923
894	0.98937
894.2	0.98985
894.4	0.99044
894.6	0.99043
894.8	0.99066
895	0.99083
895.2	0.99142
895.4	0.99148
895.6	0.99141
895.8	0.9918
896	0.9917
896.2	0.99192
896.4	0.99182
896.6	0.99176
896.8	0.9915
897	0.99129
897.2	0.99131
897.4	0.99126
897.6	0.99111
897.8	0.99075
898	0.99048
898.2	0.99028
898.4	0.98971
898.6	0.98975
898.8	0.98935
899	0.9893
899.2	0.98882
899.4	0.98842
899.6	0.98817
899.8	0.98773
900	0.9876
900.2	0.98745
900.4	0.9875
900.6	0.98735
900.8	0.98699
901	0.98714
901.2	0.9875
901.4	0.98706
901.6	0.98732
901.8	0.98733
902	0.98753
902.2	0.98761
902.4	0.98808
902.6	0.98816
902.8	0.98846
903	0.98895
903.2	0.98907
903.4	0.98931
903.6	0.98947
903.8	0.99005
904	0.99031
904.2	0.99047
904.4	0.99086
904.6	0.99114
904.8	0.99149
905	0.99122
905.2	0.9918
905.4	0.99146
905.6	0.9918
905.8	0.99196
906	0.99185
906.2	0.99165
906.4	0.99163
906.6	0.99163
906.8	0.99127
907	0.99123
907.2	0.9912
907.4	0.99097
907.6	0.99047
907.8	0.99043
908	0.99005
908.2	0.98981
908.4	0.98936
908.6	0.98929
908.8	0.98908
909	0.98885
909.2	0.98858
909.4	0.98845
909.6	0.98805
909.8	0.98759
910	0.98761
910.2	0.98751
910.4	0.98753
910.6	0.98762
910.8	0.9878
911	0.98769
911.2	0.98765
911.4	0.98771
911.6	0.98833
911.8	0.98816
912	0.98814
912.2	0.98845
912.4	0.98844
912.6	0.98905
912.8	0.98907
913	0.98935
913.2	0.98947
913.4	0.98984
913.6	0.99011
913.8	0.99009
914	0.99051
914.2	0.99069
914.4	0.9909
914.6	0.99116
914.8	0.99123
915	0.99137
915.2	0.99133
915.4	0.99139
915.6	0.99146
915.8	0.99137
916	0.9913
916.2	0.99146
916.4	0.99095
916.6	0.99115
916.8	0.99085
917	0.99048
917.2	0.99064
917.4	0.99011
917.6	0.98987
917.8	0.98987
918	0.98955
918.2	0.98932
918.4	0.98898
918.6	0.98876
918.8	0.98865
919	0.98834
919.2	0.9882
919.4	0.98792
919.6	0.98789
919.8	0.98775
920	0.98781
920.2	0.98757
920.4	0.98766
920.6	0.98781
920.8	0.98767
921	0.98761
921.2	0.98799
921.4	0.98792
921.6	0.98844
921.8	0.9888
922	0.98855
922.2	0.98869
922.4	0.98922
922.6	0.98941
922.8	0.9896
923	0.99021
923.2	0.99018
923.4	0.99029
923.6	0.99048
923.8	0.99083
924	0.99071
924.2	0.99088
924.4	0.99112
924.6	0.99143
924.8	0.99125
925	0.99131
925.2	0.99148
925.4	0.99159
925.6	0.99147
925.8	0.99141
926	0.99117
926.2	0.99115
926.4	0.99076
926.6	0.99075
926.8	0.99064
927	0.99051
927.2	0.99016
927.4	0.99007
927.6	0.98967
927.8	0.98948
928	0.98915
928.2	0.98893
928.4	0.9886
928.6	0.98872
928.8	0.98833
929	0.98811
929.2	0.98795
929.4	0.9876
929.6	0.98776
929.8	0.98758
930	0.98724
930.2	0.98711
930.4	0.98732
930.6	0.98728
930.8	0.9875
931	0.98757
931.2	0.98763
931.4	0.98789
931.6	0.98783
931.8	0.9883
932	0.98827
932.2	0.98874
932.4	0.9889
932.6	0.98933
932.8	0.98951
933	0.98966
933.2	0.99189
933.4	0.9922
933.6	0.98885
933.8	0.99047
934	0.99187
934.2	0.99426
934.4	0.9902
934.6	0.9905
934.8	0.9936
935	0.99076
935.2	0.99657
935.4	0.99133
935.6	0.98738
935.8	0.99096
936	0.99173
936.2	0.99516
936.4	0.99101
936.6	0.99227
936.8	0.99064
937	0.9893
937.2	0.99077
937.4	0.99238
937.6	0.98949
937.8	0.99117
938	0.99271
938.2	0.9854
938.4	0.98837
938.6	0.9916
938.8	0.98778
939	0.99211
939.2	0.98558
939.4	0.98811
939.6	0.98907
939.8	0.98709
940	0.98817
940.2	0.9876
940.4	0.98751
940.6	0.98803
940.8	0.98796
941	0.98701
941.2	0.98817
941.4	0.98776
941.6	0.98797
941.8	0.98891
942	0.98846
942.2	0.98788
942.4	0.98873
942.6	0.98989
942.8	0.98765
943	0.98934
943.2	0.98914
943.4	0.99006
943.6	0.99418
943.8	0.98729
944	0.98902
944.2	0.98947
944.4	0.99051
944.6	0.99292
944.8	0.99097
945	0.99473
945.2	0.98754
945.4	0.98964
945.6	0.99066
945.8	0.99159
946	0.99132
946.2	0.99101
946.4	0.9921
946.6	0.98994
946.8	0.99184
947	0.99204
947.2	0.98734
947.4	0.99007
947.6	0.99069
947.8	0.99099
948	0.98901
948.2	0.98913
948.4	0.98953
948.6	0.98862
948.8	0.98923
949	0.99148
949.2	0.98524
949.4	0.98754
949.6	0.9882
949.8	0.98775
950	0.98811
950.2	0.98932
950.4	0.98665
950.6	0.98691
950.8	0.98608
951	0.9902
951.2	0.98458
951.4	0.98721
951.6	0.98769
951.8	0.98793
952	0.98774
952.2	0.98828
952.4	0.98766
952.6	0.98952
952.8	0.98743
953	0.98914
953.2	0.9882
953.4	0.98758
953.6	0.98907
953.8	0.98911
954	0.98861
954.2	0.98986
954.4	0.99053
954.6	0.98959
954.8	0.98939
955	0.99015
955.2	0.99196
955.4	0.99044
955.6	0.98955
955.8	0.99033
956	0.99076
956.2	0.99205
956.4	0.99016
956.6	0.99107
956.8	0.98944
957	0.99002
957.2	0.99026
957.4	0.99047
957.6	0.98993
957.8	0.98882
958	0.98953
958.2	0.98872
958.4	0.98927
958.6	0.9888
958.8	0.98856
959	0.98846
959.2	0.98672
959.4	0.98793
959.6	0.98807
959.8	0.98776
960	0.98706
960.2	0.98691
960.4	0.98678
960.6	0.98654
960.8	0.98655
961	0.98627
961.2	0.98642
961.4	0.98666
961.6	0.98573
961.8	0.98582
962	0.98566
962.2	0.98582
962.4	0.98724
962.6	0.98656
962.8	0.98649
963	0.98653
963.2	0.98645
963.4	0.98648
963.6	0.98735
963.8	0.98695
964	0.98712
964.2	0.98752
964.4	0.98738
964.6	0.988
964.8	0.98755
965	0.9884
965.2	0.98903
965.4	0.98903
965.6	0.98867
965.8	0.98966
966	0.98927
966.2	0.98886
966.4	0.98899
966.6	0.98919
966.8	0.98911
967	0.99002
967.2	0.98965
967.4	0.98949
967.6	0.98949
967.8	0.98924
968	0.98957
968.2	0.98898
968.4	0.98897
968.6	0.9884
968.8	0.98918
969	0.98877
969.2	0.98787
969.4	0.98816
969.6	0.98778
969.8	0.98714
970	0.9877
970.2	0.98786
970.4	0.98679
970.6	0.98659
970.8	0.9871
971	0.98647
971.2	0.98647
971.4	0.98617
971.6	0.98605
971.8	0.98639
972	0.98592
972.2	0.98547
972.4	0.98549
972.6	0.98481
972.8	0.98535
973	0.98608
973.2	0.98571
973.4	0.98572
973.6	0.98537
973.8	0.98548
974	0.98566
974.2	0.98553
974.4	0.98596
974.6	0.9855
974.8	0.98607
975	0.98624
975.2	0.98675
975.4	0.98667
975.6	0.98688
975.8	0.98723
976	0.98737
976.2	0.9874
976.4	0.98718
976.6	0.98789
976.8	0.98765
977	0.98789
977.2	0.98817
977.4	0.98817
977.6	0.98856
977.8	0.98829
978	0.98803
978.2	0.98824
978.4	0.98855
978.6	0.98795
978.8	0.98817
979	0.98784
979.2	0.98806
979.4	0.98778
979.6	0.98781
979.8	0.98767
980	0.98741
980.2	0.98744
980.4	0.98683
980.6	0.98698
980.8	0.98666
981	0.98609
981.2	0.98555
981.4	0.98555
981.6	0.98606
981.8	0.98578
982	0.98536
982.2	0.98536
982.4	0.98521
982.6	0.98506
982.8	0.9846
983	0.98451
983.2	0.98438
983.4	0.98426
983.6	0.98438
983.8	0.98403
984	0.98418
984.2	0.98423
984.4	0.98472
984.6	0.98432
984.8	0.98458
985	0.98431
985.2	0.98475
985.4	0.98483
985.6	0.98497
985.8	0.98518
986	0.98536
986.2	0.98564
986.4	0.98521
986.6	0.98568
986.8	0.98548
987	0.98629
987.2	0.9864
987.4	0.98619
987.6	0.98634
987.8	0.98688
988	0.98656
988.2	0.98643
988.4	0.9867
988.6	0.98708
988.8	0.98711
989	0.98717
989.2	0.98687
989.4	0.98702
989.6	0.98723
989.8	0.98726
990	0.98683
990.2	0.98699
990.4	0.98659
990.6	0.9871
990.8	0.98685
991	0.98696
991.2	0.98687
991.4	0.98656
991.6	0.98659
991.8	0.9863
992	0.98549
992.2	0.98555
992.4	0.98555
992.6	0.98493
992.8	0.98508
993	0.98467
993.2	0.98485
993.4	0.98451
993.6	0.98433
993.8	0.98396
994	0.984
994.2	0.98404
994.4	0.98434
994.6	0.98372
994.8	0.98336
995	0.9836
995.2	0.98365
995.4	0.98342
995.6	0.98353
995.8	0.9833
996	0.98347
996.2	0.98332
996.4	0.98378
996.6	0.98412
996.8	0.98378
997	0.98406
997.2	0.98411
997.4	0.98396
997.6	0.98397
997.8	0.98406
998	0.98432
998.2	0.98488
998.4	0.9853
998.6	0.98479
998.8	0.98511
999	0.98516
999.2	0.98579
999.4	0.98567
999.6	0.98591
999.8	0.98588
1000	0.9858
1000.2	0.98613
1000.4	0.98602
1000.6	0.98602
1000.8	0.98638
1001	0.98661
1001.2	0.9879
1001.4	0.98786
1001.6	0.98825
1001.8	0.98849
1002	0.98821
1002.2	0.98774
1002.4	0.98761
1002.6	0.98698
1002.8	0.98736
1003	0.98679
1003.2	0.988
1003.4	0.98721
1003.6	0.98712
1003.8	0.98645
1004	0.98617
1004.2	0.98585
1004.4	0.98583
1004.6	0.98535
1004.8	0.98549
1005	0.98453
1005.2	0.98505
1005.4	0.98458
1005.6	0.98506
1005.8	0.98415
1006	0.98445
1006.2	0.98577
1006.4	0.98574
1006.6	0.98601
1006.8	0.98575
1007	0.98547
1007.2	0.98519
1007.4	0.98571
1007.6	0.98581
1007.8	0.98585
1008	0.9858
1008.2	0.98591
1008.4	0.98596
1008.6	0.98621
1008.8	0.98633
1009	0.98643
1009.2	0.98642
1009.4	0.98659
1009.6	0.98608
1009.8	0.98633
1010	0.98628
1010.2	0.98646
1010.4	0.98653
1010.6	0.98693
1010.8	0.98734
1011	0.98713
1011.2	0.987
1011.4	0.98676
1011.6	0.98736
1011.8	0.98811
1012	0.98791
1012.2	0.98771
1012.4	0.98775
1012.6	0.98776
1012.8	0.98816
1013	0.98788
1013.2	0.98834
1013.4	0.98844
1013.6	0.98784
1013.8	0.98797
1014	0.98754
1014.2	0.98773
1014.4	0.98714
1014.6	0.98689
1014.8	0.98701
1015	0.9876
1015.2	0.98663
1015.4	0.98639
1015.6	0.98652
1015.8	0.98661
1016	0.98609
1016.2	0.98626
1016.4	0.98628
1016.6	0.98596
1016.8	0.98495
1017	0.98505
1017.2	0.98444
1017.4	0.98518
1017.6	0.9856
1017.8	0.98426
1018	0.98471
1018.2	0.98476
1018.4	0.98484
1018.6	0.98445
1018.8	0.98497
1019	0.98402
1019.2	0.984
1019.4	0.98475
1019.6	0.98443
1019.8	0.98385
1020	0.98394
1020.2	0.98429
1020.4	0.9849
1020.6	0.98464
1020.8	0.98453
1021	0.98447
1021.2	0.98444
1021.4	0.98461
1021.6	0.98559
1021.8	0.98552
1022	0.9862
1022.2	0.98562
1022.4	0.98607
1022.6	0.98594
1022.8	0.98645
1023	0.98624
1023.2	0.98622
1023.4	0.98631
1023.6	0.98643
1023.8	0.98646
1024	0.9866
1024.2	0.9875
1024.4	0.98663
1024.6	0.98701
1024.8	0.98649
1025	0.98624
1025.2	0.98703
1025.4	0.98686
1025.6	0.9873
1025.8	0.98665
1026	0.9864
1026.2	0.98639
1026.4	0.98619
1026.6	0.98556
1026.8	0.98568
1027	0.98549
1027.2	0.98601
1027.4	0.98579
1027.6	0.98536
1027.8	0.9844
1028	0.98513
1028.2	0.9842
1028.4	0.9847
1028.6	0.98402
1028.8	0.98457
1029	0.98398
1029.2	0.98365
1029.4	0.98347
1029.6	0.98313
1029.8	0.98345
1030	0.98314
1030.2	0.98283
1030.4	0.98383
1030.6	0.98258
1030.8	0.98212
1031	0.98219
1031.2	0.98237
1031.4	0.98248
1031.6	0.98213
1031.8	0.98225
1032	0.9828
1032.2	0.98248
1032.4	0.98221
1032.6	0.98295
1032.8	0.98292
1033	0.98241
1033.2	0.98302
1033.4	0.98334
1033.6	0.98382
1033.8	0.9835
1034	0.98394
1034.2	0.98336
1034.4	0.98352
1034.6	0.98383
1034.8	0.9838
1035	0.98421
1035.2	0.9841
1035.4	0.98532
1035.6	0.98525
1035.8	0.98457
1036	0.98498
1036.2	0.98465
1036.4	0.98463
1036.6	0.9847
1036.8	0.98535
1037	0.98548
1037.2	0.98473
1037.4	0.98585
1037.6	0.98508
1037.8	0.98553
1038	0.98491
1038.2	0.98563
1038.4	0.98561
1038.6	0.98519
1038.8	0.98561
1039	0.98542
1039.2	0.98499
1039.4	0.98545
1039.6	0.9848
1039.8	0.98489
1040	0.98478
1040.2	0.98486
1040.4	0.98523
1040.6	0.98503
1040.8	0.98491
1041	0.98382
1041.2	0.98361
1041.4	0.98393
1041.6	0.98399
1041.8	0.98393
1042	0.9834
1042.2	0.98283
1042.4	0.98319
1042.6	0.98224
1042.8	0.98242
1043	0.98249
1043.2	0.98358
1043.4	0.98266
1043.6	0.98161
1043.8	0.98237
1044	0.98148
1044.2	0.98124
1044.4	0.98208
1044.6	0.98212
1044.8	0.98302
1045	0.98091
1045.2	0.98231
1045.4	0.98285
1045.6	0.98253
1045.8	0.98275
1046	0.98286
1046.2	0.98344
1046.4	0.98313
1046.6	0.9826
1046.8	0.98316
1047	0.98338
1047.2	0.98329
1047.4	0.98263
1047.6	0.98273
1047.8	0.98392
1048	0.98366
1048.2	0.98437
1048.4	0.98492
1048.6	0.98341
1048.8	0.9842
1049	0.98411
1049.2	0.98441
1049.4	0.98466
1049.6	0.98467
1049.8	0.98496
1050	0.98442
1050.2	0.98528
1050.4	0.98494
1050.6	0.98586
1050.8	0.98473
1051	0.98477
1051.2	0.9848
1051.4	0.98417
1051.6	0.98539
1051.8	0.98599
1052	0.98393
1052.2	0.98549
1052.4	0.98463
1052.6	0.9848
1052.8	0.9837
1053	0.98467
1053.2	0.9846
1053.4	0.98426
1053.6	0.98434
1053.8	0.98342
1054	0.98405
1054.2	0.98304
1054.4	0.98221
1054.6	0.98209
1054.8	0.98233
1055	0.98189
1055.2	0.98271
1055.4	0.9825
1055.6	0.98298
1055.8	0.98241
1056	0.98203
1056.2	0.98206
1056.4	0.98113
1056.6	0.98162
1056.8	0.98191
1057	0.98152
1057.2	0.9813
1057.4	0.98135
1057.6	0.98161
1057.8	0.98212
1058	0.98119
1058.2	0.98199
1058.4	0.98165
1058.6	0.98051
1058.8	0.98219
1059	0.98149
1059.2	0.98173
1059.4	0.98255
1059.6	0.98204
1059.8	0.9825
1060	0.98128
1060.2	0.98307
1060.4	0.98255
1060.6	0.98199
1060.8	0.98244
1061	0.98415
1061.2	0.98404
1061.4	0.98326
1061.6	0.9837
1061.8	0.98355
1062	0.98364
1062.2	0.98423
1062.4	0.98326
1062.6	0.98439
1062.8	0.98401
1063	0.98597
1063.2	0.98453
1063.4	0.98445
1063.6	0.98449
1063.8	0.98558
1064	0.98353
1064.2	0.98484
1064.4	0.9833
1064.6	0.98359
1064.8	0.984
1065	0.98379
1065.2	0.98377
1065.4	0.98333
1065.6	0.98366
1065.8	0.98434
1066	0.98423
1066.2	0.98428
1066.4	0.98203
1066.6	0.98205
1066.8	0.98303
1067	0.98232
1067.2	0.98219
1067.4	0.98189
1067.6	0.9818
1067.8	0.98179
1068	0.9816
1068.2	0.98136
1068.4	0.98125
1068.6	0.97985
1068.8	0.98177
1069	0.98024
1069.2	0.98049
1069.4	0.98113
1069.6	0.98102
1069.8	0.98059
1070	0.98118
1070.2	0.98179
1070.4	0.98013
1070.6	0.98089
1070.8	0.9808
1071	0.98052
1071.2	0.9805
1071.4	0.98123
1071.6	0.98193
1071.8	0.98005
1072	0.98206
1072.2	0.98151
1072.4	0.98087
1072.6	0.98112
1072.8	0.98208
1073	0.9815
1073.2	0.98152
1073.4	0.98184
1073.6	0.98137
1073.8	0.98175
1074	0.98145
1074.2	0.98347
1074.4	0.98307
1074.6	0.98144
1074.8	0.98293
1075	0.9835
1075.2	0.98366
1075.4	0.98362
1075.6	0.9838
1075.8	0.98328
1076	0.98307
1076.2	0.98353
1076.4	0.98314
1076.6	0.98325
1076.8	0.98451
1077	0.98356
1077.2	0.98436
1077.4	0.98355
1077.6	0.98274
1077.8	0.98357
1078	0.98461
1078.2	0.98248
1078.4	0.98217
1078.6	0.98403
1078.8	0.98386
1079	0.9833
1079.2	0.98375
1079.4	0.98222
1079.6	0.98287
1079.8	0.98235
1080	0.98216
1080.2	0.98241
1080.4	0.98388
1080.6	0.98322
1080.8	0.98283
1081	0.98153
1081.2	0.9824
1081.4	0.98067
1081.6	0.98155
1081.8	0.98087
1082	0.98199
1082.2	0.98037
1082.4	0.98189
1082.6	0.98102
1082.8	0.98088
1083	0.98092
1083.2	0.98148
1083.4	0.97982
1083.6	0.98134
1083.8	0.98099
1084	0.9805
1084.2	0.98043
1084.4	0.97984
1084.6	0.98068
1084.8	0.98113
1085	0.98089
1085.2	0.98146
1085.4	0.98049
1085.6	0.979
1085.8	0.98035
1086	0.98133
1086.2	0.98032
1086.4	0.98117
1086.6	0.98093
1086.8	0.9799
1087	0.98259
1087.2	0.98139
1087.4	0.98158
1087.6	0.98241
1087.8	0.98184
1088	0.98316
1088.2	0.97968
1088.4	0.98218
1088.6	0.98211
1088.8	0.98106
1089	0.98351
1089.2	0.98305
1089.4	0.98167
1089.6	0.982
1089.8	0.98205
1090	0.98223
1090.2	0.98259
1090.4	0.98156
1090.6	0.98325
1090.8	0.98178
1091	0.98248
1091.2	0.98199
1091.4	0.98124
1091.6	0.98184
1091.8	0.98263
1092	0.98169
1092.2	0.98157
1092.4	0.98227
1092.6	0.98122
1092.8	0.98382
1093	0.97875
1093.2	0.98204
1093.4	0.98185
1093.6	0.98056
1093.8	0.98278
1094	0.98145
1094.2	0.98125
1094.4	0.98108
1094.6	0.98139
1094.8	0.98174
1095	0.9806
1095.2	0.98092
1095.4	0.97992
1095.6	0.97977
1095.8	0.98096
1096	0.98092
1096.2	0.98066
1096.4	0.98005
1096.6	0.97987
1096.8	0.97853
1097	0.9808
1097.2	0.97991
1097.4	0.98024
1097.6	0.9808
1097.8	0.98136
1098	0.97921
1098.2	0.97985
1098.4	0.98039
1098.6	0.97862
1098.8	0.97986
1099	0.97987
1099.2	0.97807
1099.4	0.9771
1099.6	0.98096
1099.8	0.97771
1100	0.98014
1100.2	0.98069
1100.4	0.97862
1100.6	0.98059
1100.8	0.97918
1101	0.97959
1101.2	0.97846
1101.4	0.97985
1101.6	0.97981
1101.8	0.98115
1102	0.97763
1102.2	0.98012
1102.4	0.9823
1102.6	0.9811
1102.8	0.98568
1103	0.98106
1103.2	0.98121
1103.4	0.98206
1103.6	0.97945
1103.8	0.98293
1104	0.98291
1104.2	0.9821
1104.4	0.98167
1104.6	0.98231
1104.8	0.98297
1105	0.98062
1105.2	0.98078
1105.4	0.98451
1105.6	0.98269
1105.8	0.97962
1106	0.98011
1106.2	0.98213
1106.4	0.98248
1106.6	0.9786
1106.8	0.98072
1107	0.98205
1107.2	0.98022
1107.4	0.97921
1107.6	0.9823
1107.8	0.97873
1108	0.98057
1108.2	0.98177
1108.4	0.98132
1108.6	0.97879
1108.8	0.97998
1109	0.97875
1109.2	0.98214
1109.4	0.97966
1109.6	0.98112
1109.8	0.98042
1110	0.98012
1110.2	0.97885
1110.4	0.98016
1110.6	0.97899
1110.8	0.97912
1111	0.97955
1111.2	0.97804
1111.4	0.97953
1111.6	0.9788
1111.8	0.98173
1112	0.97781
1112.2	0.9763
1112.4	0.97792
1112.6	0.98036
1112.8	0.98081
1113	0.97834
1113.2	0.97905
1113.4	0.97894
1113.6	0.97741
1113.8	0.98018
1114	0.97924
1114.2	0.97911
1114.4	0.97891
1114.6	0.97944
1114.8	0.9799
1115	0.98117
1115.2	0.97985
1115.4	0.98168
1115.6	0.97851
1115.8	0.98191
1116	0.97794
1116.2	0.98195
1116.4	0.98054
1116.6	0.98025
1116.8	0.98043
1117	0.97767
1117.2	0.98099
1117.4	0.97871
1117.6	0.98189
1117.8	0.97936
1118	0.9789
1118.2	0.98124
1118.4	0.98314
1118.6	0.98232
1118.8	0.9807
1119	0.97949
1119.2	0.98234
1119.4	0.98148
1119.6	0.98016
1119.8	0.98476
1120	0.97812
1120.2	0.97836
1120.4	0.97936
1120.6	0.98137
1120.8	0.98331
1121	0.98338
1121.2	0.98143
1121.4	0.98075
1121.6	0.98229
1121.8	0.97715
1122	0.98117
1122.2	0.98114
1122.4	0.98111
1122.6	0.98108
1122.8	0.98105
1123	0.98101
1123.2	0.98078
1123.4	0.98055
1123.6	0.98032
1123.8	0.98009
1124	0.97986
1124.2	0.97982
1124.4	0.97978
1124.6	0.97974
1124.8	0.9797
1125	0.97967
1125.2	0.97982
1125.4	0.97997
1125.6	0.98012
1125.8	0.98027
1126	0.98042
1126.2	0.98
1126.4	0.97958
1126.6	0.97916
1126.8	0.97874
1127	0.97834
1127.2	0.97834
1127.4	0.97833
1127.6	0.97833
1127.8	0.97832
1128	0.97833
1128.2	0.97857
1128.4	0.97882
1128.6	0.97906
1128.8	0.97931
1129	0.97954
1129.2	0.9793
1129.4	0.97907
1129.6	0.97884
1129.8	0.97861
1130	0.97839
1130.2	0.97847
1130.4	0.97855
1130.6	0.97863
1130.8	0.9787
1131	0.97879
1131.2	0.97914
1131.4	0.9795
1131.6	0.97985
1131.8	0.9802
1132	0.98054
1132.2	0.98064
1132.4	0.98074
1132.6	0.98084
1132.8	0.98094
1133	0.98105
1133.2	0.98118
1133.4	0.98131
1133.6	0.98144
1133.8	0.98157
1134	0.98169
1134.2	0.98153
1134.4	0.98137
1134.6	0.9812
1134.8	0.98104
1135	0.98088
1135.2	0.98083
1135.4	0.98078
1135.6	0.98073
1135.8	0.98068
1136	0.98061
1136.2	0.98028
1136.4	0.97995
1136.6	0.97962
1136.8	0.97929
1137	0.97899
1137.2	0.97929
1137.4	0.97958
1137.6	0.97987
1137.8	0.98017
1138	0.98045
1138.2	0.98058
1138.4	0.98071
1138.6	0.98084
1138.8	0.98097
1139	0.98109
1139.2	0.98064
1139.4	0.98019
1139.6	0.97974
1139.8	0.97929
1140	0.97884
1140.2	0.97873
1140.4	0.97862
1140.6	0.9785
1140.8	0.97839
1141	0.97828
1141.2	0.97831
1141.4	0.97835
1141.6	0.97838
1141.8	0.97841
1142	0.97844
1142.2	0.97818
1142.4	0.97793
1142.6	0.97767
1142.8	0.97742
1143	0.97718
1143.2	0.97731
1143.4	0.97744
1143.6	0.97757
1143.8	0.97771
1144	0.97783
1144.2	0.97779
1144.4	0.97774
1144.6	0.9777
1144.8	0.97766
1145	0.97762
1145.2	0.97783
1145.4	0.97804
1145.6	0.97825
1145.8	0.97846
1146	0.97866
1146.2	0.97871
1146.4	0.97876
1146.6	0.97881
1146.8	0.97886
1147	0.97891
1147.2	0.97908
1147.4	0.97925
1147.6	0.97941
1147.8	0.97958
1148	0.97974
1148.2	0.97976
1148.4	0.97979
1148.6	0.97981
1148.8	0.97984
1149	0.97987
1149.2	0.98002
1149.4	0.98016
1149.6	0.9803
1149.8	0.98045
1150	0.98059
1150.2	0.9805
1150.4	0.98041
1150.6	0.98032
1150.8	0.98023
1151	0.98014
1151.2	0.98022
1151.4	0.98029
1151.6	0.98037
1151.8	0.98044
1152	0.98051
1152.2	0.98035
1152.4	0.98018
1152.6	0.98002
1152.8	0.97986
1153	0.9797
1153.2	0.97967
1153.4	0.97964
1153.6	0.97961
1153.8	0.97958
1154	0.97955
1154.2	0.97942
1154.4	0.97928
1154.6	0.97915
1154.8	0.97902
1155	0.97888
1155.2	0.97874
1155.4	0.97861
1155.6	0.97847
1155.8	0.97833
1156	0.97819
1156.2	0.97821
1156.4	0.97824
1156.6	0.97826
1156.8	0.97828
1157	0.97829
1157.2	0.97813
1157.4	0.97798
1157.6	0.97782
1157.8	0.97766
1158	0.9775
1158.2	0.97751
1158.4	0.97752
1158.6	0.97752
1158.8	0.97753
1159	0.97754
1159.2	0.97749
1159.4	0.97743
1159.6	0.97738
1159.8	0.97733
1160	0.97728
1160.2	0.97735
1160.4	0.97742
1160.6	0.97748
1160.8	0.97755
1161	0.97761
1161.2	0.97767
1161.4	0.97773
1161.6	0.97779
1161.8	0.97785
1162	0.9779
1162.2	0.97787
1162.4	0.97783
1162.6	0.9778
1162.8	0.97776
1163	0.97773
1163.2	0.978
1163.4	0.97826
1163.6	0.97853
1163.8	0.9788
1164	0.97905
1164.2	0.97899
1164.4	0.97892
1164.6	0.97886
1164.8	0.97879
1165	0.97873
1165.2	0.97887
1165.4	0.97901
1165.6	0.97915
1165.8	0.97929
1166	0.97943
1166.2	0.97946
1166.4	0.97949
1166.6	0.97953
1166.8	0.97956
1167	0.97959
1167.2	0.97947
1167.4	0.97934
1167.6	0.97921
1167.8	0.97908
1168	0.97896
1168.2	0.9791
1168.4	0.97923
1168.6	0.97936
1168.8	0.97949
1169	0.97963
1169.2	0.97946
1169.4	0.97929
1169.6	0.97912
1169.8	0.97895
1170	0.97879
1170.2	0.97859
1170.4	0.9784
1170.6	0.97821
1170.8	0.97801
1171	0.97783
1171.2	0.97785
1171.4	0.97786
1171.6	0.97788
1171.8	0.97789
1172	0.9779
1172.2	0.97777
1172.4	0.97763
1172.6	0.97749
1172.8	0.97735
1173	0.97721
1173.2	0.9771
1173.4	0.97699
1173.6	0.97688
1173.8	0.97676
1174	0.97666
1174.2	0.97677
1174.4	0.97688
1174.6	0.977
1174.8	0.97711
1175	0.97722
1175.2	0.97718
1175.4	0.97715
1175.6	0.97711
1175.8	0.97707
1176	0.97704
1176.2	0.977
1176.4	0.97696
1176.6	0.97693
1176.8	0.97689
1177	0.97686
1177.2	0.977
1177.4	0.97714
1177.6	0.97728
1177.8	0.97742
1178	0.97756
1178.2	0.97775
1178.4	0.97794
1178.6	0.97812
1178.8	0.97831
1179	0.97849
1179.2	0.97845
1179.4	0.97841
1179.6	0.97837
1179.8	0.97833
1180	0.97829
1180.2	0.97831
1180.4	0.97832
1180.6	0.97834
1180.8	0.97836
1181	0.97837
1181.2	0.97847
1181.4	0.97857
1181.6	0.97867
1181.8	0.97877
1182	0.97886
1182.2	0.97899
1182.4	0.97912
1182.6	0.97925
1182.8	0.97938
1183	0.9795
1183.2	0.97941
1183.4	0.97931
1183.6	0.97922
1183.8	0.97912
1184	0.97902
1184.2	0.97885
1184.4	0.97867
1184.6	0.9785
1184.8	0.97832
1185	0.97814
1185.2	0.97807
1185.4	0.97799
1185.6	0.97791
1185.8	0.97783
1186	0.97776
1186.2	0.97786
1186.4	0.97796
1186.6	0.97806
1186.8	0.97816
1187	0.97826
1187.2	0.97813
1187.4	0.978
1187.6	0.97788
1187.8	0.97775
1188	0.97762
1188.2	0.97742
1188.4	0.97721
1188.6	0.977
1188.8	0.9768
1189	0.9766
1189.2	0.97654
1189.4	0.97648
1189.6	0.97642
1189.8	0.97636
1190	0.97631
1190.2	0.97623
1190.4	0.97615
1190.6	0.97608
1190.8	0.976
1191	0.97593
1191.2	0.97596
1191.4	0.97599
1191.6	0.97603
1191.8	0.97606
1192	0.9761
1192.2	0.97622
1192.4	0.97633
1192.6	0.97645
1192.8	0.97656
1193	0.97668
1193.2	0.97679
1193.4	0.97691
1193.6	0.97703
1193.8	0.97715
1194	0.97727
1194.2	0.97724
1194.4	0.97722
1194.6	0.9772
1194.8	0.97717
1195	0.97715
1195.2	0.9772
1195.4	0.97724
1195.6	0.97729
1195.8	0.97734
1196	0.97738
1196.2	0.97741
1196.4	0.97744
1196.6	0.97746
1196.8	0.97749
1197	0.97752
1197.2	0.97758
1197.4	0.97764
1197.6	0.9777
1197.8	0.97776
1198	0.97782
1198.2	0.97799
1198.4	0.97815
1198.6	0.97831
1198.8	0.97848
1199	0.97864
1199.2	0.97863
1199.4	0.97863
1199.6	0.97863
1199.8	0.97863
1200	0.97863
1200.2	0.97871
1200.4	0.9788
1200.6	0.97888
1200.8	0.97896
1201	0.97904
1201.2	0.97893
1201.4	0.97885
1201.6	0.97882
1201.8	0.97886
1202	0.97889
1202.2	0.97872
1202.4	0.97854
1202.6	0.97841
1202.8	0.97831
1203	0.97821
1203.2	0.97825
1203.4	0.97828
1203.6	0.97825
1203.8	0.97817
1204	0.9781
1204.2	0.97808
1204.4	0.97807
1204.6	0.97799
1204.8	0.97786
1205	0.97773
1205.2	0.97765
1205.4	0.97757
1205.6	0.97753
1205.8	0.97751
1206	0.9775
1206.2	0.97735
1206.4	0.97719
1206.6	0.97717
1206.8	0.97728
1207	0.97739
1207.2	0.97728
1207.4	0.97717
1207.6	0.97715
1207.8	0.97723
1208	0.97731
1208.2	0.97727
1208.4	0.97724
1208.6	0.9772
1208.8	0.97715
1209	0.9771
1209.2	0.97712
1209.4	0.97714
1209.6	0.97715
1209.8	0.97716
1210	0.97717
1210.2	0.97713
1210.4	0.9771
1210.6	0.97715
1210.8	0.97728
1211	0.97741
1211.2	0.97753
1211.4	0.97765
1211.6	0.97775
1211.8	0.97783
1212	0.97791
1212.2	0.9779
1212.4	0.97789
1212.6	0.97794
1212.8	0.97804
1213	0.97814
1213.2	0.97821
1213.4	0.97828
1213.6	0.97836
1213.8	0.97847
1214	0.97858
1214.2	0.97873
1214.4	0.97888
1214.6	0.97892
1214.8	0.97886
1215	0.97881
1215.2	0.97886
1215.4	0.97892
1215.6	0.97897
1215.8	0.97903
1216	0.97909
1216.2	0.97913
1216.4	0.97917
1216.6	0.97916
1216.8	0.97909
1217	0.97902
1217.2	0.97902
1217.4	0.97901
1217.6	0.97902
1217.8	0.97905
1218	0.97909
1218.2	0.97897
1218.4	0.97886
1218.6	0.97886
1218.8	0.97898
1219	0.9791
1219.2	0.97909
1219.4	0.97909
1219.6	0.97909
1219.8	0.97909
1220	0.9791
1220.2	0.9788
1220.4	0.9785
1220.6	0.97834
1220.8	0.9783
1221	0.97826
1221.2	0.97824
1221.4	0.97822
1221.6	0.97819
1221.8	0.97814
1222	0.9781
1222.2	0.97805
1222.4	0.97799
1222.6	0.97794
1222.8	0.97789
1223	0.97784
1223.2	0.97767
1223.4	0.9775
1223.6	0.97741
1223.8	0.97738
1224	0.97735
1224.2	0.97725
1224.4	0.97715
1224.6	0.9771
1224.8	0.97709
1225	0.97708
1225.2	0.97707
1225.4	0.97706
1225.6	0.97707
1225.8	0.97708
1226	0.97709
1226.2	0.97711
1226.4	0.97713
1226.6	0.97714
1226.8	0.97713
1227	0.97712
1227.2	0.97717
1227.4	0.97722
1227.6	0.97728
1227.8	0.97735
1228	0.97742
1228.2	0.97743
1228.4	0.97744
1228.6	0.97748
1228.8	0.97754
1229	0.9776
1229.2	0.9776
1229.4	0.9776
1229.6	0.97767
1229.8	0.97782
1230	0.97797
1230.2	0.97805
1230.4	0.97813
1230.6	0.97823
1230.8	0.97836
1231	0.97849
1231.2	0.97848
1231.4	0.97848
1231.6	0.97849
1231.8	0.97853
1232	0.97857
1232.2	0.97872
1232.4	0.97887
1232.6	0.97899
1232.8	0.97908
1233	0.97918
1233.2	0.97919
1233.4	0.97921
1233.6	0.97925
1233.8	0.97933
1234	0.9794
1234.2	0.97935
1234.4	0.9793
1234.6	0.9793
1234.8	0.97935
1235	0.97941
1235.2	0.97945
1235.4	0.97949
1235.6	0.97948
1235.8	0.97942
1236	0.97937
1236.2	0.97941
1236.4	0.97946
1236.6	0.97944
1236.8	0.97934
1237	0.97925
1237.2	0.9791
1237.4	0.97896
1237.6	0.97887
1237.8	0.97883
1238	0.9788
1238.2	0.97887
1238.4	0.97894
1238.6	0.97893
1238.8	0.97884
1239	0.97875
1239.2	0.97862
1239.4	0.97849
1239.6	0.97842
1239.8	0.9784
1240	0.97839
1240.2	0.97833
1240.4	0.97828
1240.6	0.97816
1240.8	0.97798
1241	0.97779
1241.2	0.97784
1241.4	0.97789
1241.6	0.97781
1241.8	0.97761
1242	0.9774
1242.2	0.97738
1242.4	0.97735
1242.6	0.97739
1242.8	0.97748
1243	0.97758
1243.2	0.97758
1243.4	0.97757
1243.6	0.9775
1243.8	0.97736
1244	0.97722
1244.2	0.9773
1244.4	0.97738
1244.6	0.97744
1244.8	0.97749
1245	0.97753
1245.2	0.97749
1245.4	0.97746
1245.6	0.97746
1245.8	0.97749
1246	0.97753
1246.2	0.97765
1246.4	0.97776
1246.6	0.97783
1246.8	0.97783
1247	0.97784
1247.2	0.97787
1247.4	0.9779
1247.6	0.97798
1247.8	0.97813
1248	0.97828
1248.2	0.97843
1248.4	0.97857
1248.6	0.97869
1248.8	0.97879
1249	0.97889
1249.2	0.979
1249.4	0.97911
1249.6	0.97919
1249.8	0.97921
1250	0.97924
1250.2	0.97928
1250.4	0.97932
1250.6	0.97939
1250.8	0.97949
1251	0.97959
1251.2	0.97953
1251.4	0.97947
1251.6	0.97949
1251.8	0.97959
1252	0.97969
1252.2	0.97975
1252.4	0.97981
1252.6	0.9798
1252.8	0.97972
1253	0.97963
1253.2	0.97972
1253.4	0.97981
1253.6	0.97985
1253.8	0.97984
1254	0.97983
1254.2	0.97985
1254.4	0.97986
1254.6	0.97982
1254.8	0.97972
1255	0.97962
1255.2	0.97945
1255.4	0.97928
1255.6	0.97927
1255.8	0.9794
1256	0.97954
1256.2	0.97946
1256.4	0.97939
1256.6	0.97934
1256.8	0.97932
1257	0.97929
1257.2	0.97933
1257.4	0.97936
1257.6	0.97929
1257.8	0.97913
1258	0.97897
1258.2	0.97887
1258.4	0.97876
1258.6	0.9787
1258.8	0.9787
1259	0.97869
1259.2	0.9785
1259.4	0.97831
1259.6	0.97819
1259.8	0.97812
1260	0.97806
1260.2	0.97811
1260.4	0.97816
1260.6	0.97813
1260.8	0.97801
1261	0.9779
1261.2	0.97779
1261.4	0.97768
1261.6	0.97767
1261.8	0.97777
1262	0.97786
1262.2	0.97779
1262.4	0.97771
1262.6	0.97767
1262.8	0.97765
1263	0.97763
1263.2	0.97772
1263.4	0.97781
1263.6	0.97786
1263.8	0.97788
1264	0.97789
1264.2	0.97812
1264.4	0.97835
1264.6	0.97848
1264.8	0.9785
1265	0.97853
1265.2	0.97852
1265.4	0.97852
1265.6	0.97853
1265.8	0.97857
1266	0.97861
1266.2	0.97874
1266.4	0.97886
1266.6	0.97896
1266.8	0.97902
1267	0.97908
1267.2	0.97918
1267.4	0.97927
1267.6	0.97936
1267.8	0.97942
1268	0.97949
1268.2	0.97957
1268.4	0.97965
1268.6	0.97977
1268.8	0.97993
1269	0.98008
1269.2	0.98012
1269.4	0.98016
1269.6	0.98021
1269.8	0.98029
1270	0.98037
1270.2	0.98038
1270.4	0.98038
1270.6	0.98043
1270.8	0.98053
1271	0.98063
1271.2	0.98068
1271.4	0.98073
1271.6	0.98075
1271.8	0.98076
1272	0.98076
1272.2	0.98077
1272.4	0.98078
1272.6	0.98081
1272.8	0.98087
1273	0.98092
1273.2	0.98085
1273.4	0.98078
1273.6	0.98073
1273.8	0.98071
1274	0.98068
1274.2	0.9807
1274.4	0.98073
1274.6	0.98067
1274.8	0.98051
1275	0.98035
1275.2	0.98033
1275.4	0.98031
1275.6	0.98028
1275.8	0.98024
1276	0.9802
1276.2	0.98019
1276.4	0.98019
1276.6	0.98017
1276.8	0.98013
1277	0.98008
1277.2	0.97987
1277.4	0.97966
1277.6	0.97955
1277.8	0.97954
1278	0.97953
1278.2	0.97955
1278.4	0.97958
1278.6	0.97953
1278.8	0.97941
1279	0.97929
1279.2	0.97917
1279.4	0.97905
1279.6	0.97891
1279.8	0.97875
1280	0.97859
1280.2	0.97854
1280.4	0.97849
1280.6	0.97851
1280.8	0.9786
1281	0.97868
1281.2	0.97881
1281.4	0.97893
1281.6	0.97897
1281.8	0.97893
1282	0.97889
1282.2	0.97887
1282.4	0.97886
1282.6	0.97884
1282.8	0.97881
1283	0.97879
1283.2	0.97881
1283.4	0.97884
1283.6	0.97891
1283.8	0.97905
1284	0.97918
1284.2	0.97917
1284.4	0.97916
1284.6	0.97919
1284.8	0.97926
1285	0.97932
1285.2	0.97939
1285.4	0.97945
1285.6	0.9795
1285.8	0.97954
1286	0.97958
1286.2	0.97975
1286.4	0.97993
1286.6	0.98007
1286.8	0.98016
1287	0.98026
1287.2	0.98031
1287.4	0.98037
1287.6	0.98044
1287.8	0.98055
1288	0.98065
1288.2	0.98079
1288.4	0.98093
1288.6	0.98102
1288.8	0.98106
1289	0.98109
1289.2	0.98103
1289.4	0.98097
1289.6	0.98099
1289.8	0.98109
1290	0.98119
1290.2	0.98124
1290.4	0.98128
1290.6	0.98129
1290.8	0.98127
1291	0.98125
1291.2	0.9812
1291.4	0.98115
1291.6	0.98117
1291.8	0.98127
1292	0.98136
1292.2	0.98138
1292.4	0.98141
1292.6	0.98142
1292.8	0.98143
1293	0.98144
1293.2	0.98141
1293.4	0.98139
1293.6	0.98135
1293.8	0.98131
1294	0.98127
1294.2	0.98115
1294.4	0.98103
1294.6	0.98096
1294.8	0.98092
1295	0.98088
1295.2	0.98088
1295.4	0.98088
1295.6	0.98083
1295.8	0.98073
1296	0.98062
1296.2	0.98052
1296.4	0.98042
1296.6	0.98037
1296.8	0.98037
1297	0.98037
1297.2	0.98033
1297.4	0.98028
1297.6	0.98022
1297.8	0.98013
1298	0.98004
1298.2	0.97996
1298.4	0.97987
1298.6	0.97973
1298.8	0.97953
1299	0.97932
1299.2	0.97939
1299.4	0.97945
1299.6	0.97944
1299.8	0.97938
1300	0.97932
1300.2	0.97924
1300.4	0.97917
1300.6	0.97918
1300.8	0.97927
1301	0.97937
1301.2	0.97934
1301.4	0.97931
1301.6	0.97926
1301.8	0.97919
1302	0.97913
1302.2	0.97913
1302.4	0.97913
1302.6	0.97918
1302.8	0.9793
1303	0.97942
1303.2	0.97953
1303.4	0.97964
1303.6	0.97971
1303.8	0.97971
1304	0.97972
1304.2	0.97975
1304.4	0.97978
1304.6	0.97982
1304.8	0.97987
1305	0.97992
1305.2	0.98001
1305.4	0.98011
1305.6	0.9802
1305.8	0.98028
1306	0.98037
1306.2	0.98043
1306.4	0.98049
1306.6	0.98053
1306.8	0.98055
1307	0.98057
1307.2	0.98071
1307.4	0.98084
1307.6	0.98096
1307.8	0.98105
1308	0.98115
1308.2	0.98122
1308.4	0.98129
1308.6	0.98136
1308.8	0.98143
1309	0.9815
1309.2	0.98162
1309.4	0.98174
1309.6	0.98185
1309.8	0.98196
1310	0.98207
1310.2	0.98214
1310.4	0.98221
1310.6	0.98222
1310.8	0.98217
1311	0.98213
1311.2	0.98213
1311.4	0.98214
1311.6	0.98212
1311.8	0.98209
1312	0.98206
1312.2	0.9821
1312.4	0.98213
1312.6	0.98212
1312.8	0.98205
1313	0.98198
1313.2	0.98192
1313.4	0.98186
1313.6	0.9818
1313.8	0.98175
1314	0.9817
1314.2	0.98161
1314.4	0.98152
1314.6	0.9815
1314.8	0.98155
1315	0.9816
1315.2	0.98161
1315.4	0.98162
1315.6	0.98156
1315.8	0.98143
1316	0.9813
1316.2	0.98119
1316.4	0.98109
1316.6	0.981
1316.8	0.98094
1317	0.98087
1317.2	0.98083
1317.4	0.98078
1317.6	0.98068
1317.8	0.98053
1318	0.98038
1318.2	0.98032
1318.4	0.98026
1318.6	0.98023
1318.8	0.98025
1319	0.98026
1319.2	0.98017
1319.4	0.98008
1319.6	0.9801
1319.8	0.98021
1320	0.98032
1320.2	0.98027
1320.4	0.98022
1320.6	0.98012
1320.8	0.97996
1321	0.9798
1321.2	0.97972
1321.4	0.97964
1321.6	0.97966
1321.8	0.97977
1322	0.97988
1322.2	0.97983
1322.4	0.97978
1322.6	0.97978
1322.8	0.97984
1323	0.9799
1323.2	0.98006
1323.4	0.98022
1323.6	0.98027
1323.8	0.98019
1324	0.98011
1324.2	0.98017
1324.4	0.98024
1324.6	0.98028
1324.8	0.98029
1325	0.98031
1325.2	0.98032
1325.4	0.98033
1325.6	0.98038
1325.8	0.98047
1326	0.98056
1326.2	0.98059
1326.4	0.98063
1326.6	0.98074
1326.8	0.98093
1327	0.98112
1327.2	0.98133
1327.4	0.98154
1327.6	0.98164
1327.8	0.98164
1328	0.98163
1328.2	0.9816
1328.4	0.98157
1328.6	0.98159
1328.8	0.98167
1329	0.98174
1329.2	0.98188
1329.4	0.98201
1329.6	0.9821
1329.8	0.98214
1330	0.98218
1330.2	0.98216
1330.4	0.98214
1330.6	0.98221
1330.8	0.98238
1331	0.98254
1331.2	0.98262
1331.4	0.98269
1331.6	0.98271
1331.8	0.98268
1332	0.98265
1332.2	0.98256
1332.4	0.98247
1332.6	0.98241
1332.8	0.98238
1333	0.98234
1333.2	0.98235
1333.4	0.98236
1333.6	0.98236
1333.8	0.98237
1334	0.98237
1334.2	0.98237
1334.4	0.98236
1334.6	0.98234
1334.8	0.9823
1335	0.98225
1335.2	0.98213
1335.4	0.982
1335.6	0.98193
1335.8	0.98192
1336	0.9819
1336.2	0.98185
1336.4	0.9818
1336.6	0.98172
1336.8	0.9816
1337	0.98148
1337.2	0.9814
1337.4	0.98132
1337.6	0.98128
1337.8	0.98129
1338	0.9813
1338.2	0.98123
1338.4	0.98116
1338.6	0.98109
1338.8	0.98102
1339	0.98095
1339.2	0.98082
1339.4	0.98069
1339.6	0.9806
1339.8	0.98055
1340	0.98051
1340.2	0.98048
1340.4	0.98044
1340.6	0.98042
1340.8	0.98039
1341	0.98037
1341.2	0.98028
1341.4	0.9802
1341.6	0.98017
1341.8	0.9802
1342	0.98022
1342.2	0.98022
1342.4	0.98022
1342.6	0.98023
1342.8	0.98025
1343	0.98027
1343.2	0.98025
1343.4	0.98023
1343.6	0.98022
1343.8	0.98022
1344	0.98021
1344.2	0.9802
1344.4	0.98019
1344.6	0.98023
1344.8	0.98031
1345	0.9804
1345.2	0.98057
1345.4	0.98074
1345.6	0.98083
1345.8	0.98085
1346	0.98087
1346.2	0.98088
1346.4	0.98089
1346.6	0.98093
1346.8	0.98101
1347	0.98108
1347.2	0.98129
1347.4	0.98149
1347.6	0.98169
1347.8	0.98187
1348	0.98205
1348.2	0.98207
1348.4	0.98208
1348.6	0.98213
1348.8	0.98222
1349	0.98231
1349.2	0.98246
1349.4	0.9826
1349.6	0.98265
1349.8	0.98258
1350	0.98251
1350.2	0.98254
1350.4	0.98256
1350.6	0.98261
1350.8	0.98267
1351	0.98273
1351.2	0.98273
1351.4	0.98272
1351.6	0.98275
1351.8	0.98282
1352	0.98288
1352.2	0.98277
1352.4	0.98266
1352.6	0.98291
1352.8	0.98352
1353	0.98413
1353.2	0.98415
1353.4	0.98418
1353.6	0.98403
1353.8	0.98371
1354	0.9834
1354.2	0.98347
1354.4	0.98355
1354.6	0.98348
1354.8	0.98326
1355	0.98305
1355.2	0.98321
1355.4	0.98337
1355.6	0.98336
1355.8	0.9832
1356	0.98303
1356.2	0.98293
1356.4	0.98283
1356.6	0.98275
1356.8	0.98269
1357	0.98264
1357.2	0.98258
1357.4	0.98253
1357.6	0.98248
1357.8	0.98244
1358	0.9824
1358.2	0.98231
1358.4	0.98222
1358.6	0.98206
1358.8	0.98182
1359	0.98157
1359.2	0.98163
1359.4	0.98169
1359.6	0.9817
1359.8	0.98165
1360	0.98161
1360.2	0.98163
1360.4	0.98166
1360.6	0.98163
1360.8	0.98156
1361	0.98149
1361.2	0.98132
1361.4	0.98115
1361.6	0.98102
1361.8	0.98092
1362	0.98081
1362.2	0.98071
1362.4	0.98061
1362.6	0.98056
1362.8	0.98057
1363	0.98058
1363.2	0.9806
1363.4	0.98061
1363.6	0.98056
1363.8	0.98045
1364	0.98033
1364.2	0.98035
1364.4	0.98036
1364.6	0.98034
1364.8	0.98029
1365	0.98025
1365.2	0.98034
1365.4	0.98044
1365.6	0.9805
1365.8	0.98052
1366	0.98053
1366.2	0.98047
1366.4	0.9804
1366.6	0.98042
1366.8	0.98054
1367	0.98066
1367.2	0.98075
1367.4	0.98084
1367.6	0.98093
1367.8	0.98102
1368	0.98112
1368.2	0.98111
1368.4	0.98111
1368.6	0.98114
1368.8	0.9812
1369	0.98127
1369.2	0.9812
1369.4	0.98114
1369.6	0.98117
1369.8	0.98129
1370	0.98142
1370.2	0.98159
1370.4	0.98176
1370.6	0.98188
1370.8	0.98195
1371	0.98201
1371.2	0.98207
1371.4	0.98213
1371.6	0.98216
1371.8	0.98217
1372	0.98218
1372.2	0.98225
1372.4	0.98231
1372.6	0.98236
1372.8	0.98239
1373	0.98242
1373.2	0.98249
1373.4	0.98257
1373.6	0.98263
1373.8	0.98267
1374	0.9827
1374.2	0.98268
1374.4	0.98267
1374.6	0.98266
1374.8	0.98266
1375	0.98266
1375.2	0.98265
1375.4	0.98264
1375.6	0.98265
1375.8	0.98268
1376	0.9827
1376.2	0.98256
1376.4	0.98241
1376.6	0.98231
1376.8	0.98224
1377	0.98217
1377.2	0.98224
1377.4	0.98231
1377.6	0.98229
1377.8	0.98217
1378	0.98205
1378.2	0.98195
1378.4	0.98185
1378.6	0.9818
1378.8	0.98179
1379	0.98179
1379.2	0.98153
1379.4	0.98127
1379.6	0.98124
1379.8	0.98143
1380	0.98161
1380.2	0.98171
1380.4	0.9818
1380.6	0.98167
1380.8	0.9813
1381	0.98094
1381.2	0.9807
1381.4	0.98045
1381.6	0.98032
1381.8	0.98031
1382	0.9803
1382.2	0.98006
1382.4	0.97983
1382.6	0.97969
1382.8	0.97966
1383	0.97962
1383.2	0.97965
1383.4	0.97969
1383.6	0.97962
1383.8	0.97946
1384	0.9793
1384.2	0.97926
1384.4	0.97921
1384.6	0.97921
1384.8	0.97925
1385	0.97929
1385.2	0.97936
1385.4	0.97942
1385.6	0.97936
1385.8	0.97915
1386	0.97895
1386.2	0.97894
1386.4	0.97894
1386.6	0.97892
1386.8	0.9789
1387	0.97887
1387.2	0.97905
1387.4	0.97923
1387.6	0.97929
1387.8	0.97924
1388	0.97919
1388.2	0.97922
1388.4	0.97926
1388.6	0.97924
1388.8	0.97919
1389	0.97913
1389.2	0.97919
1389.4	0.97926
1389.6	0.97929
1389.8	0.97931
1390	0.97932
1390.2	0.97937
1390.4	0.97942
1390.6	0.97949
1390.8	0.97957
1391	0.97965
1391.2	0.97969
1391.4	0.97972
1391.6	0.97982
1391.8	0.98
1392	0.98017
1392.2	0.98021
1392.4	0.98024
1392.6	0.98029
1392.8	0.98033
1393	0.98038
1393.2	0.98048
1393.4	0.98059
1393.6	0.98071
1393.8	0.98086
1394	0.98101
1394.2	0.98106
1394.4	0.98112
1394.6	0.98122
1394.8	0.98137
1395	0.98151
1395.2	0.98147
1395.4	0.98144
1395.6	0.9814
1395.8	0.98137
1396	0.98133
1396.2	0.9815
1396.4	0.98166
1396.6	0.9817
1396.8	0.98161
1397	0.98152
1397.2	0.98148
1397.4	0.98144
1397.6	0.9814
1397.8	0.98136
1398	0.98133
1398.2	0.98133
1398.4	0.98134
1398.6	0.98136
1398.8	0.98138
1399	0.9814
1399.2	0.98127
1399.4	0.98114
1399.6	0.98111
1399.8	0.98119
1400	0.98127
1400.2	0.98127
1400.4	0.98126
1400.6	0.98128
1400.8	0.98131
1401	0.98135
1401.2	0.98122
1401.4	0.98109
1401.6	0.981
1401.8	0.98096
1402	0.98091
1402.2	0.98078
1402.4	0.98066
1402.6	0.98056
1402.8	0.9805
1403	0.98044
1403.2	0.98033
1403.4	0.98022
1403.6	0.98006
1403.8	0.97984
1404	0.97962
1404.2	0.97966
1404.4	0.97971
1404.6	0.97967
1404.8	0.97956
1405	0.97945
1405.2	0.97937
1405.4	0.97929
1405.6	0.97922
1405.8	0.97915
1406	0.97908
1406.2	0.97907
1406.4	0.97905
1406.6	0.97902
1406.8	0.97896
1407	0.9789
1407.2	0.97889
1407.4	0.97888
1407.6	0.97884
1407.8	0.97876
1408	0.97869
1408.2	0.9786
1408.4	0.97851
1408.6	0.97842
1408.8	0.97834
1409	0.97826
1409.2	0.97853
1409.4	0.9788
1409.6	0.97884
1409.8	0.97864
1410	0.97845
1410.2	0.9785
1410.4	0.97856
1410.6	0.97862
1410.8	0.97869
1411	0.97876
1411.2	0.97874
1411.4	0.97871
1411.6	0.97873
1411.8	0.9788
1412	0.97887
1412.2	0.97885
1412.4	0.97883
1412.6	0.97886
1412.8	0.97894
1413	0.97901
1413.2	0.97906
1413.4	0.97911
1413.6	0.97912
1413.8	0.97909
1414	0.97906
1414.2	0.97917
1414.4	0.97928
1414.6	0.97942
1414.8	0.97961
1415	0.9798
1415.2	0.97991
1415.4	0.98002
1415.6	0.98006
1415.8	0.98002
1416	0.97997
1416.2	0.98009
1416.4	0.98021
1416.6	0.98029
1416.8	0.98032
1417	0.98036
1417.2	0.98043
1417.4	0.9805
1417.6	0.98056
1417.8	0.98062
1418	0.98068
1418.2	0.98073
1418.4	0.98078
1418.6	0.98082
1418.8	0.98087
1419	0.98092
1419.2	0.98103
1419.4	0.98113
1419.6	0.98118
1419.8	0.98116
1420	0.98114
1420.2	0.98102
1420.4	0.9809
1420.6	0.98089
1420.8	0.981
1421	0.9811
1421.2	0.98071
1421.4	0.98032
1421.6	0.98027
1421.8	0.98056
1422	0.98084
1422.2	0.98084
1422.4	0.98083
1422.6	0.98082
1422.8	0.98079
1423	0.98076
1423.2	0.98057
1423.4	0.98038
1423.6	0.9803
1423.8	0.98033
1424	0.98035
1424.2	0.98034
1424.4	0.98032
1424.6	0.98023
1424.8	0.98006
1425	0.9799
1425.2	0.97982
1425.4	0.97975
1425.6	0.97964
1425.8	0.97949
1426	0.97934
1426.2	0.97924
1426.4	0.97914
1426.6	0.97906
1426.8	0.97898
1427	0.97891
1427.2	0.97881
1427.4	0.9787
1427.6	0.97858
1427.8	0.97844
1428	0.97831
1428.2	0.97821
1428.4	0.9781
1428.6	0.978
1428.8	0.9779
1429	0.97779
1429.2	0.97777
1429.4	0.97775
1429.6	0.97768
1429.8	0.97755
1430	0.97742
1430.2	0.97731
1430.4	0.97719
1430.6	0.97718
1430.8	0.97727
1431	0.97735
1431.2	0.97735
1431.4	0.97735
1431.6	0.97731
1431.8	0.97723
1432	0.97715
1432.2	0.97705
1432.4	0.97694
1432.6	0.97691
1432.8	0.97695
1433	0.977
1433.2	0.97703
1433.4	0.97706
1433.6	0.97705
1433.8	0.97699
1434	0.97694
1434.2	0.97689
1434.4	0.97684
1434.6	0.97684
1434.8	0.97688
1435	0.97692
1435.2	0.97689
1435.4	0.97685
1435.6	0.97686
1435.8	0.97691
1436	0.97696
1436.2	0.97714
1436.4	0.97733
1436.6	0.97749
1436.8	0.97764
1437	0.97778
1437.2	0.97783
1437.4	0.97787
1437.6	0.9779
1437.8	0.97792
1438	0.97794
1438.2	0.97799
1438.4	0.97805
1438.6	0.97811
1438.8	0.97816
1439	0.97822
1439.2	0.97835
1439.4	0.97847
1439.6	0.97857
1439.8	0.97865
1440	0.97872
1440.2	0.97872
1440.4	0.97872
1440.6	0.97874
1440.8	0.97877
1441	0.97881
1441.2	0.97887
1441.4	0.97894
1441.6	0.97899
1441.8	0.97904
1442	0.97908
1442.2	0.97917
1442.4	0.97925
1442.6	0.97933
1442.8	0.97942
1443	0.9795
1443.2	0.97954
1443.4	0.97957
1443.6	0.97957
1443.8	0.97953
1444	0.97948
1444.2	0.97957
1444.4	0.97965
1444.6	0.97963
1444.8	0.97952
1445	0.97941
1445.2	0.97935
1445.4	0.9793
1445.6	0.97927
1445.8	0.97928
1446	0.97928
1446.2	0.97916
1446.4	0.97903
1446.6	0.97895
1446.8	0.97891
1447	0.97887
1447.2	0.97886
1447.4	0.97885
1447.6	0.97882
1447.8	0.97875
1448	0.97869
1448.2	0.97857
1448.4	0.97845
1448.6	0.97833
1448.8	0.97822
1449	0.97811
1449.2	0.97795
1449.4	0.9778
1449.6	0.97769
1449.8	0.97763
1450	0.97756
1450.2	0.9775
1450.4	0.97743
1450.6	0.97734
1450.8	0.97721
1451	0.97708
1451.2	0.97694
1451.4	0.97679
1451.6	0.97664
1451.8	0.97647
1452	0.9763
1452.2	0.9763
1452.4	0.97631
1452.6	0.97627
1452.8	0.97617
1453	0.97606
1453.2	0.97593
1453.4	0.97579
1453.6	0.97567
1453.8	0.97554
1454	0.97542
1454.2	0.97541
1454.4	0.9754
1454.6	0.97536
1454.8	0.9753
1455	0.97524
1455.2	0.97512
1455.4	0.97499
1455.6	0.97494
1455.8	0.97496
1456	0.97498
1456.2	0.975
1456.4	0.97502
1456.6	0.97497
1456.8	0.97486
1457	0.97474
1457.2	0.97483
1457.4	0.97492
1457.6	0.97492
1457.8	0.97484
1458	0.97476
1458.2	0.97487
1458.4	0.97497
1458.6	0.9751
1458.8	0.97523
1459	0.97537
1459.2	0.9753
1459.4	0.97523
1459.6	0.97525
1459.8	0.97535
1460	0.97546
1460.2	0.97551
1460.4	0.97556
1460.6	0.97561
1460.8	0.97566
1461	0.9757
1461.2	0.97573
1461.4	0.97575
1461.6	0.9758
1461.8	0.97589
1462	0.97597
1462.2	0.97609
1462.4	0.97621
1462.6	0.9763
1462.8	0.97638
1463	0.97645
1463.2	0.97655
1463.4	0.97665
1463.6	0.97673
1463.8	0.97678
1464	0.97683
1464.2	0.97687
1464.4	0.97691
1464.6	0.977
1464.8	0.97715
1465	0.97731
1465.2	0.97735
1465.4	0.97739
1465.6	0.97747
1465.8	0.97758
1466	0.97769
1466.2	0.97765
1466.4	0.9776
1466.6	0.97756
1466.8	0.97752
1467	0.97747
1467.2	0.97767
1467.4	0.97786
1467.6	0.97796
1467.8	0.97797
1468	0.97799
1468.2	0.97793
1468.4	0.97787
1468.6	0.97786
1468.8	0.9779
1469	0.97794
1469.2	0.97776
1469.4	0.97758
1469.6	0.9775
1469.8	0.97754
1470	0.97758
1470.2	0.97749
1470.4	0.97741
1470.6	0.9773
1470.8	0.97717
1471	0.97704
1471.2	0.97698
1471.4	0.97692
1471.6	0.9769
1471.8	0.97691
1472	0.97693
1472.2	0.97688
1472.4	0.97684
1472.6	0.97666
1472.8	0.97635
1473	0.97603
1473.2	0.97591
1473.4	0.97578
1473.6	0.97568
1473.8	0.97559
1474	0.97551
1474.2	0.97544
1474.4	0.97538
1474.6	0.97536
1474.8	0.97538
1475	0.97541
1475.2	0.97513
1475.4	0.97486
1475.6	0.97463
1475.8	0.97444
1476	0.97426
1476.2	0.97416
1476.4	0.97407
1476.6	0.97398
1476.8	0.97391
1477	0.97383
1477.2	0.97378
1477.4	0.97373
1477.6	0.97367
1477.8	0.97361
1478	0.97355
1478.2	0.97338
1478.4	0.97321
1478.6	0.9731
1478.8	0.97306
1479	0.97301
1479.2	0.97294
1479.4	0.97286
1479.6	0.97281
1479.8	0.97277
1480	0.97274
1480.2	0.9727
1480.4	0.97266
1480.6	0.97267
1480.8	0.97275
1481	0.97283
1481.2	0.97281
1481.4	0.97279
1481.6	0.97279
1481.8	0.9728
1482	0.97282
1482.2	0.9728
1482.4	0.97277
1482.6	0.97278
1482.8	0.97282
1483	0.97287
1483.2	0.97294
1483.4	0.97301
1483.6	0.97306
1483.8	0.97308
1484	0.9731
1484.2	0.97324
1484.4	0.97337
1484.6	0.97355
1484.8	0.97376
1485	0.97397
1485.2	0.97407
1485.4	0.97418
1485.6	0.97424
1485.8	0.97426
1486	0.97428
1486.2	0.97444
1486.4	0.9746
1486.6	0.97474
1486.8	0.97484
1487	0.97495
1487.2	0.97511
1487.4	0.97527
1487.6	0.97536
1487.8	0.97539
1488	0.97542
1488.2	0.9755
1488.4	0.97558
1488.6	0.97569
1488.8	0.9758
1489	0.97592
1489.2	0.97603
1489.4	0.97613
1489.6	0.97625
1489.8	0.97636
1490	0.97648
1490.2	0.97645
1490.4	0.97643
1490.6	0.97642
1490.8	0.97643
1491	0.97643
1491.2	0.97651
1491.4	0.97658
1491.6	0.97656
1491.8	0.97644
1492	0.97632
1492.2	0.97625
1492.4	0.97617
1492.6	0.97605
1492.8	0.97588
1493	0.97571
1493.2	0.97559
1493.4	0.97547
1493.6	0.9753
1493.8	0.97508
1494	0.97486
1494.2	0.97484
1494.4	0.97481
1494.6	0.97471
1494.8	0.97452
1495	0.97433
1495.2	0.97409
1495.4	0.97386
1495.6	0.9736
1495.8	0.97333
1496	0.97305
1496.2	0.97273
1496.4	0.97241
1496.6	0.97208
1496.8	0.97173
1497	0.97138
1497.2	0.97095
1497.4	0.97051
1497.6	0.97011
1497.8	0.96977
1498	0.96942
1498.2	0.96904
1498.4	0.96866
1498.6	0.96826
1498.8	0.96785
1499	0.96743
1499.2	0.96697
1499.4	0.96652
1499.6	0.96602
1499.8	0.96546
1500	0.96491
1500.2	0.96447
1500.4	0.96402
1500.6	0.96352
1500.8	0.96296
1501	0.9624
